Hour,Load (kW)
1,101.097
2,98.677
3,98.677
4,98.677
5,98.677
6,98.677
7,98.677
8,39.3
9,27.425
10,27.425
11,27.425
12,27.425
13,27.425
14,27.425
15,27.425
16,27.425
17,27.425
18,63.051
19,98.677
20,98.677
21,98.677
22,98.785
23,103.237
24,105.572
25,106.934
26,109.018
27,110.123
28,112.009
29,112.36
30,114.809
31,129.851
32,159.327
33,229.727
34,277.999
35,277.999
36,277.999
37,250.574
38,277.999
39,277.999
40,277.999
41,277.999
42,124.479
43,100.824
44,103.079
45,105.722
46,107.086
47,109.778
48,111.463
49,114.136
50,114.277
51,117.701
52,116.148
53,119.84
54,117.065
55,129.851
56,159.166
57,229.727
58,277.999
59,277.999
60,277.999
61,250.574
62,277.999
63,277.999
64,277.999
65,277.999
66,124.479
67,101.289
68,104.381
69,106.385
70,107.924
71,109.927
72,109.491
73,110.366
74,110.166
75,110.164
76,109.709
77,111.333
78,110.345
79,129.851
80,159.327
81,229.727
82,277.999
83,277.999
84,277.999
85,250.574
86,277.999
87,277.999
88,277.999
89,277.999
90,124.479
91,98.677
92,98.677
93,98.677
94,98.677
95,98.677
96,98.677
97,98.677
98,98.677
99,98.677
100,98.677
101,98.677
102,98.677
103,129.851
104,159.327
105,229.727
106,277.999
107,277.999
108,277.999
109,250.574
110,277.999
111,277.999
112,277.999
113,277.999
114,124.479
115,98.677
116,98.677
117,98.677
118,98.677
119,98.677
120,98.677
121,98.677
122,98.677
123,98.677
124,98.677
125,98.677
126,98.677
127,129.851
128,159.327
129,229.727
130,277.999
131,277.999
132,278.752
133,254.507
134,285.606
135,285.393
136,283.534
137,278.956
138,112.604
139,98.677
140,98.677
141,98.677
142,98.677
143,98.677
144,98.677
145,98.677
146,98.677
147,98.677
148,98.677
149,98.677
150,98.677
151,98.677
152,70.474
153,65.177
154,107.518
155,107.518
156,107.518
157,58.599
158,58.599
159,58.599
160,58.599
161,27.425
162,51.176
163,98.677
164,98.677
165,98.677
166,98.677
167,98.677
168,98.677
169,98.677
170,98.677
171,98.677
172,98.677
173,98.677
174,98.677
175,98.677
176,39.3
177,27.425
178,27.425
179,27.425
180,27.425
181,27.425
182,27.425
183,27.425
184,27.425
185,27.425
186,51.176
187,98.677
188,98.677
189,98.677
190,98.677
191,98.677
192,98.677
193,98.799
194,102.682
195,105.148
196,106.831
197,108.294
198,108.618
199,129.851
200,159.327
201,229.727
202,277.999
203,277.999
204,277.999
205,250.574
206,277.999
207,279.885
208,278.7
209,277.999
210,112.604
211,98.677
212,98.677
213,98.677
214,98.677
215,98.677
216,98.677
217,98.677
218,98.677
219,98.677
220,98.677
221,98.677
222,98.677
223,129.851
224,159.327
225,229.727
226,277.999
227,277.999
228,277.999
229,250.574
230,277.999
231,277.999
232,277.999
233,277.999
234,112.604
235,98.677
236,98.677
237,98.677
238,98.677
239,98.677
240,98.677
241,98.677
242,98.677
243,98.677
244,98.677
245,98.677
246,98.677
247,129.851
248,159.327
249,229.727
250,277.999
251,277.999
252,277.999
253,250.574
254,277.999
255,278.196
256,279.043
257,277.999
258,112.604
259,98.677
260,98.677
261,98.677
262,98.677
263,98.677
264,98.677
265,98.677
266,98.677
267,98.677
268,98.677
269,99.398
270,100.424
271,129.851
272,159.327
273,229.727
274,277.999
275,277.999
276,277.999
277,250.574
278,277.999
279,277.999
280,277.999
281,277.999
282,118.368
283,105.739
284,109.653
285,108.083
286,113.372
287,110.124
288,114.904
289,112.454
290,118.927
291,115.312
292,120.689
293,116.326
294,121.188
295,129.771
296,159.045
297,229.646
298,277.999
299,277.999
300,277.999
301,250.574
302,277.999
303,277.999
304,277.999
305,277.999
306,112.604
307,98.677
308,98.677
309,98.677
310,98.677
311,98.677
312,98.677
313,98.677
314,98.677
315,98.677
316,98.677
317,98.677
318,98.677
319,98.677
320,70.474
321,65.177
322,107.518
323,107.518
324,107.518
325,58.599
326,58.599
327,58.599
328,58.599
329,27.425
330,51.176
331,98.677
332,98.677
333,98.677
334,98.677
335,98.677
336,98.677
337,98.677
338,98.677
339,98.677
340,98.677
341,98.677
342,98.677
343,98.677
344,39.3
345,27.425
346,27.425
347,27.425
348,27.425
349,27.425
350,27.425
351,27.425
352,27.425
353,27.425
354,51.176
355,98.677
356,98.677
357,98.677
358,98.677
359,98.677
360,98.677
361,98.677
362,98.677
363,98.677
364,98.677
365,98.677
366,98.677
367,98.677
368,39.3
369,27.425
370,27.425
371,27.425
372,27.425
373,27.425
374,27.425
375,27.425
376,27.425
377,27.425
378,51.176
379,98.677
380,98.677
381,98.677
382,98.677
383,98.677
384,98.677
385,98.677
386,98.677
387,98.677
388,98.677
389,98.677
390,98.677
391,129.851
392,159.327
393,229.727
394,277.999
395,277.999
396,277.999
397,250.574
398,278.076
399,278.05
400,277.999
401,277.999
402,112.604
403,98.677
404,98.677
405,98.677
406,98.677
407,98.677
408,98.677
409,98.677
410,98.677
411,98.677
412,98.677
413,98.677
414,98.677
415,129.851
416,159.327
417,229.727
418,277.999
419,277.999
420,277.999
421,250.574
422,277.999
423,277.999
424,277.999
425,277.999
426,112.604
427,98.677
428,98.677
429,98.677
430,98.677
431,98.677
432,98.677
433,98.677
434,98.677
435,98.677
436,98.677
437,98.677
438,98.677
439,129.851
440,159.327
441,229.727
442,277.999
443,277.999
444,277.999
445,251.179
446,282.859
447,280.178
448,278.798
449,277.999
450,112.604
451,98.677
452,98.677
453,98.677
454,98.677
455,98.677
456,98.677
457,98.677
458,98.677
459,98.677
460,98.677
461,98.677
462,98.677
463,129.851
464,159.327
465,229.727
466,277.999
467,277.999
468,277.999
469,250.841
470,281.255
471,280.118
472,279.508
473,278.684
474,100.728
475,98.677
476,98.677
477,98.677
478,98.677
479,98.677
480,98.677
481,98.677
482,98.677
483,98.677
484,98.677
485,98.677
486,98.677
487,98.677
488,70.474
489,65.177
490,107.518
491,107.518
492,107.518
493,58.599
494,58.599
495,58.599
496,58.599
497,27.425
498,39.3
499,98.677
500,98.677
501,98.677
502,98.677
503,98.677
504,98.677
505,98.677
506,98.677
507,98.677
508,98.677
509,98.677
510,98.677
511,98.677
512,39.3
513,27.425
514,27.425
515,27.425
516,27.425
517,27.425
518,27.425
519,27.425
520,27.425
521,27.425
522,39.3
523,98.677
524,98.677
525,98.677
526,98.677
527,98.677
528,98.677
529,98.677
530,98.677
531,98.677
532,98.677
533,98.677
534,98.677
535,129.851
536,159.327
537,229.727
538,277.999
539,278.985
540,282.837
541,254.912
542,285.419
543,285.864
544,286.482
545,283.945
546,100.728
547,98.677
548,98.677
549,98.677
550,98.677
551,98.677
552,98.677
553,98.677
554,98.677
555,98.677
556,98.677
557,98.677
558,98.677
559,129.851
560,159.327
561,229.727
562,277.999
563,277.999
564,279.337
565,253.317
566,284.701
567,283.961
568,279.844
569,278.02
570,100.728
571,98.677
572,98.677
573,98.677
574,98.677
575,98.677
576,98.677
577,98.677
578,98.677
579,98.677
580,98.677
581,98.677
582,98.677
583,129.851
584,159.327
585,229.727
586,277.999
587,277.999
588,280.944
589,255.995
590,285.956
591,286.2
592,285.383
593,282.349
594,100.728
595,98.677
596,98.677
597,98.677
598,98.677
599,98.677
600,98.677
601,98.677
602,98.677
603,98.677
604,98.677
605,98.677
606,98.677
607,129.851
608,159.327
609,229.727
610,277.999
611,277.999
612,278.815
613,253.784
614,284.561
615,282.239
616,280.719
617,280.218
618,100.728
619,98.677
620,98.677
621,98.677
622,98.677
623,98.677
624,98.677
625,98.677
626,98.677
627,98.677
628,98.677
629,98.677
630,98.677
631,129.851
632,159.327
633,229.727
634,277.999
635,277.999
636,277.999
637,250.792
638,283.362
639,283.922
640,281.349
641,278.076
642,100.728
643,98.677
644,98.677
645,98.677
646,98.677
647,98.677
648,98.677
649,98.677
650,98.677
651,98.677
652,98.677
653,98.677
654,98.677
655,98.677
656,70.474
657,65.177
658,107.518
659,107.518
660,107.518
661,58.599
662,58.599
663,58.599
664,58.599
665,27.425
666,39.3
667,98.677
668,98.677
669,98.677
670,98.677
671,98.677
672,98.677
673,98.677
674,100.375
675,101.975
676,104.857
677,103.504
678,104.439
679,104.298
680,47.058
681,32.206
682,29.299
683,27.425
684,27.425
685,27.425
686,27.425
687,27.425
688,27.425
689,27.425
690,39.3
691,98.677
692,98.677
693,98.677
694,98.852
695,101.126
696,103.215
697,104.08
698,105.624
699,105.631
700,106.738
701,106.271
702,107.909
703,129.851
704,159.327
705,229.727
706,277.999
707,277.999
708,277.999
709,250.574
710,277.999
711,277.999
712,277.999
713,277.999
714,100.728
715,98.677
716,98.677
717,98.677
718,98.677
719,98.677
720,100.486
721,102.564
722,105.068
723,106.406
724,108.888
725,109.676
726,112.212
727,129.851
728,147.452
729,229.727
730,277.999
731,277.999
732,277.999
733,250.574
734,277.999
735,277.999
736,277.999
737,277.999
738,100.728
739,98.677
740,98.677
741,98.677
742,98.677
743,99.601
744,100.895
745,101.247
746,101.289
747,102.824
748,103.376
749,102.811
750,102.758
751,129.851
752,147.452
753,229.727
754,277.999
755,277.999
756,277.999
757,250.574
758,277.999
759,277.999
760,277.999
761,277.999
762,100.728
763,98.677
764,98.677
765,98.677
766,98.677
767,98.677
768,98.677
769,98.677
770,98.677
771,98.677
772,98.677
773,98.677
774,98.677
775,129.851
776,147.452
777,229.727
778,277.999
779,277.999
780,277.999
781,250.574
782,277.999
783,277.999
784,277.999
785,277.999
786,88.853
787,98.677
788,98.677
789,98.677
790,98.677
791,98.677
792,98.677
793,98.677
794,98.677
795,98.677
796,98.677
797,98.677
798,98.677
799,129.851
800,147.452
801,229.727
802,277.999
803,277.999
804,277.999
805,250.574
806,278.976
807,280.617
808,278.488
809,277.999
810,88.853
811,98.677
812,98.677
813,98.677
814,98.677
815,98.677
816,98.677
817,98.677
818,98.677
819,98.677
820,98.677
821,98.677
822,98.677
823,98.677
824,58.599
825,65.177
826,107.518
827,107.518
828,107.518
829,58.599
830,58.599
831,58.599
832,58.599
833,27.425
834,27.425
835,98.677
836,98.677
837,98.677
838,98.677
839,98.677
840,98.677
841,98.677
842,98.677
843,98.677
844,98.677
845,98.677
846,98.677
847,98.677
848,27.425
849,27.425
850,27.425
851,27.425
852,27.425
853,27.425
854,27.425
855,27.425
856,27.425
857,27.425
858,27.425
859,98.677
860,98.677
861,98.677
862,98.677
863,98.677
864,98.677
865,98.677
866,98.677
867,98.677
868,98.677
869,98.677
870,98.677
871,129.851
872,147.452
873,229.727
874,277.999
875,277.999
876,277.999
877,250.574
878,277.999
879,277.999
880,277.999
881,277.999
882,88.853
883,98.677
884,98.677
885,98.677
886,98.677
887,98.677
888,98.677
889,98.677
890,98.677
891,98.677
892,98.677
893,98.677
894,98.677
895,129.851
896,147.452
897,229.727
898,277.999
899,277.999
900,277.999
901,252.412
902,285.066
903,284.154
904,282.843
905,281.784
906,88.853
907,98.677
908,98.677
909,98.677
910,98.677
911,98.677
912,98.677
913,98.677
914,98.677
915,98.677
916,98.677
917,98.677
918,98.677
919,129.851
920,147.452
921,229.727
922,277.999
923,277.999
924,277.999
925,250.574
926,277.999
927,277.999
928,277.999
929,277.999
930,88.853
931,98.677
932,98.677
933,98.677
934,98.677
935,98.677
936,99.771
937,101.729
938,102.36
939,104.863
940,104.371
941,105.812
942,105.208
943,129.851
944,147.452
945,229.727
946,277.999
947,277.999
948,277.999
949,250.574
950,277.999
951,277.999
952,277.999
953,277.999
954,88.853
955,98.677
956,98.677
957,98.677
958,100.658
959,102.024
960,104.246
961,105.847
962,108.407
963,108.834
964,111.076
965,110.539
966,112.529
967,129.851
968,147.452
969,229.727
970,277.999
971,277.999
972,277.999
973,250.574
974,277.999
975,277.999
976,277.999
977,277.999
978,88.853
979,98.677
980,102.892
981,103.324
982,106.653
983,104.789
984,106.901
985,104.946
986,107.236
987,105.445
988,108.487
989,106.43
990,109.709
991,107.054
992,58.599
993,65.177
994,107.518
995,107.518
996,107.518
997,58.599
998,58.599
999,58.599
1000,58.599
1001,27.425
1002,27.425
1003,98.677
1004,100.476
1005,103.478
1006,104.223
1007,106.785
1008,106.435
1009,109.803
1010,107.856
1011,110.53
1012,108.674
1013,113.219
1014,112.052
1015,116.143
1016,41.096
1017,40.774
1018,33.004
1019,27.425
1020,27.425
1021,27.425
1022,27.425
1023,27.425
1024,27.425
1025,27.425
1026,27.425
1027,98.677
1028,98.677
1029,98.677
1030,98.845
1031,100.436
1032,102.705
1033,102.712
1034,105.494
1035,104.74
1036,107.375
1037,105.729
1038,109.603
1039,129.851
1040,147.452
1041,229.727
1042,277.999
1043,277.999
1044,277.999
1045,250.574
1046,277.999
1047,277.999
1048,277.999
1049,277.999
1050,88.853
1051,98.677
1052,98.677
1053,98.677
1054,98.677
1055,98.677
1056,98.677
1057,98.677
1058,98.677
1059,98.677
1060,98.677
1061,98.677
1062,99.57
1063,129.851
1064,147.452
1065,229.727
1066,277.999
1067,277.999
1068,277.999
1069,250.574
1070,277.999
1071,277.999
1072,277.999
1073,277.999
1074,88.853
1075,98.677
1076,98.677
1077,98.677
1078,98.677
1079,98.677
1080,98.677
1081,98.677
1082,98.677
1083,98.677
1084,98.677
1085,98.677
1086,98.677
1087,129.851
1088,147.452
1089,229.727
1090,277.999
1091,277.999
1092,277.999
1093,250.574
1094,277.999
1095,277.999
1096,278.019
1097,277.999
1098,88.853
1099,98.677
1100,98.677
1101,98.677
1102,98.677
1103,98.677
1104,98.677
1105,98.677
1106,98.677
1107,98.677
1108,98.677
1109,98.677
1110,98.677
1111,129.851
1112,147.452
1113,229.727
1114,277.999
1115,277.999
1116,277.999
1117,250.574
1118,277.999
1119,277.999
1120,277.999
1121,277.999
1122,88.853
1123,86.802
1124,98.677
1125,98.677
1126,98.677
1127,98.677
1128,98.677
1129,98.677
1130,98.677
1131,98.677
1132,98.677
1133,98.677
1134,98.677
1135,117.976
1136,147.452
1137,229.727
1138,277.999
1139,277.999
1140,277.999
1141,250.574
1142,277.999
1143,277.999
1144,277.999
1145,277.999
1146,88.853
1147,86.802
1148,98.677
1149,98.677
1150,98.677
1151,98.677
1152,98.677
1153,98.677
1154,98.677
1155,98.677
1156,98.677
1157,98.677
1158,98.677
1159,86.802
1160,58.599
1161,65.177
1162,107.518
1163,107.518
1164,107.518
1165,58.599
1166,58.599
1167,58.599
1168,58.599
1169,27.425
1170,27.425
1171,86.802
1172,98.677
1173,98.677
1174,98.677
1175,98.677
1176,98.677
1177,98.677
1178,98.677
1179,98.677
1180,98.677
1181,98.677
1182,98.677
1183,86.802
1184,27.425
1185,27.425
1186,27.425
1187,27.425
1188,27.425
1189,27.425
1190,27.425
1191,27.425
1192,27.425
1193,27.425
1194,27.425
1195,86.802
1196,98.677
1197,98.677
1198,98.677
1199,98.677
1200,98.677
1201,98.677
1202,98.677
1203,98.677
1204,98.677
1205,98.677
1206,98.677
1207,86.802
1208,27.425
1209,27.425
1210,27.425
1211,27.425
1212,27.425
1213,27.425
1214,27.425
1215,27.425
1216,27.425
1217,27.425
1218,27.425
1219,86.802
1220,98.677
1221,98.677
1222,98.677
1223,98.677
1224,98.677
1225,98.677
1226,98.677
1227,98.677
1228,98.677
1229,98.677
1230,98.677
1231,117.976
1232,147.452
1233,229.727
1234,277.999
1235,277.999
1236,279.412
1237,253.167
1238,284.066
1239,285.247
1240,285.193
1241,283.57
1242,88.853
1243,86.802
1244,98.677
1245,98.677
1246,98.677
1247,98.677
1248,98.677
1249,98.677
1250,98.677
1251,98.677
1252,98.677
1253,98.677
1254,98.677
1255,117.976
1256,147.452
1257,229.727
1258,277.999
1259,278.521
1260,283.598
1261,257.892
1262,288.66
1263,288.732
1264,289.234
1265,286.419
1266,88.853
1267,86.802
1268,98.677
1269,98.677
1270,98.677
1271,98.677
1272,98.677
1273,98.677
1274,98.677
1275,98.677
1276,98.677
1277,98.677
1278,98.677
1279,117.976
1280,147.452
1281,229.727
1282,277.999
1283,282.096
1284,286.916
1285,259.652
1286,287.136
1287,284.298
1288,284.829
1289,282.355
1290,88.853
1291,86.802
1292,98.677
1293,98.677
1294,98.677
1295,98.677
1296,98.677
1297,98.677
1298,98.677
1299,98.677
1300,98.677
1301,98.677
1302,98.677
1303,117.976
1304,147.452
1305,229.727
1306,277.999
1307,278.751
1308,284.948
1309,259.868
1310,288.338
1311,288.026
1312,287.664
1313,285.951
1314,88.853
1315,86.802
1316,98.677
1317,98.677
1318,98.677
1319,98.677
1320,98.677
1321,98.677
1322,98.677
1323,98.677
1324,98.677
1325,98.677
1326,98.677
1327,86.802
1328,58.599
1329,65.177
1330,107.518
1331,107.518
1332,107.634
1333,60.981
1334,65.183
1335,60.2
1336,58.599
1337,27.425
1338,27.425
1339,86.802
1340,98.677
1341,98.677
1342,98.677
1343,98.677
1344,98.677
1345,98.802
1346,101.089
1347,104.185
1348,103.724
1349,106.187
1350,106.095
1351,98.031
1352,35.382
1353,33.567
1354,28.239
1355,27.437
1356,27.425
1357,27.425
1358,27.425
1359,27.425
1360,27.425
1361,27.425
1362,27.425
1363,86.802
1364,98.677
1365,98.677
1366,98.677
1367,98.677
1368,98.772
1369,100.919
1370,102.826
1371,104.892
1372,105.061
1373,106.018
1374,105.761
1375,117.976
1376,147.452
1377,229.727
1378,277.999
1379,277.999
1380,277.999
1381,250.574
1382,277.999
1383,277.999
1384,277.999
1385,277.999
1386,88.853
1387,86.802
1388,98.677
1389,98.677
1390,98.677
1391,98.677
1392,98.677
1393,98.677
1394,98.677
1395,98.677
1396,98.677
1397,98.677
1398,98.677
1399,106.1
1400,147.452
1401,229.727
1402,277.999
1403,278.181
1404,281.59
1405,255.749
1406,286.062
1407,286.224
1408,286.645
1409,284.736
1410,88.853
1411,86.802
1412,98.677
1413,98.677
1414,98.677
1415,98.677
1416,98.677
1417,98.677
1418,98.677
1419,98.677
1420,98.677
1421,98.677
1422,101.077
1423,106.1
1424,147.452
1425,229.727
1426,277.999
1427,277.999
1428,277.999
1429,250.574
1430,277.999
1431,277.999
1432,278.277
1433,278.324
1434,88.853
1435,86.802
1436,98.677
1437,98.677
1438,98.677
1439,98.677
1440,98.677
1441,98.677
1442,98.677
1443,98.677
1444,100.134
1445,101.361
1446,101.894
1447,106.1
1448,147.452
1449,229.727
1450,277.999
1451,277.999
1452,277.999
1453,250.574
1454,278.195
1455,279.429
1456,278.016
1457,277.999
1458,88.853
1459,86.802
1460,98.677
1461,98.677
1462,98.677
1463,98.677
1464,98.677
1465,98.677
1466,98.677
1467,98.677
1468,98.677
1469,98.677
1470,98.677
1471,106.1
1472,147.452
1473,229.727
1474,277.999
1475,277.999
1476,278.062
1477,251.499
1478,282.788
1479,284.38
1480,283.495
1481,280.172
1482,88.853
1483,86.802
1484,98.677
1485,98.677
1486,98.677
1487,98.677
1488,98.677
1489,98.677
1490,98.677
1491,98.677
1492,98.677
1493,98.677
1494,98.677
1495,74.927
1496,58.599
1497,65.177
1498,107.518
1499,107.518
1500,107.518
1501,58.599
1502,58.664
1503,59.716
1504,60.283
1505,27.425
1506,27.425
1507,74.927
1508,98.677
1509,98.677
1510,98.677
1511,98.677
1512,98.677
1513,98.677
1514,98.677
1515,98.677
1516,98.677
1517,98.677
1518,98.677
1519,74.927
1520,27.425
1521,27.425
1522,27.425
1523,27.425
1524,27.425
1525,27.425
1526,27.425
1527,27.425
1528,27.425
1529,27.425
1530,27.425
1531,74.927
1532,98.677
1533,98.677
1534,98.677
1535,98.677
1536,98.677
1537,98.677
1538,98.677
1539,98.677
1540,98.677
1541,98.677
1542,98.677
1543,106.1
1544,147.452
1545,229.727
1546,277.999
1547,277.999
1548,277.999
1549,250.574
1550,277.999
1551,277.999
1552,279.036
1553,279.325
1554,88.853
1555,74.927
1556,98.677
1557,98.677
1558,98.677
1559,98.677
1560,98.677
1561,98.677
1562,98.677
1563,98.677
1564,98.677
1565,98.677
1566,98.677
1567,106.1
1568,147.452
1569,229.727
1570,277.999
1571,277.999
1572,277.999
1573,250.574
1574,277.999
1575,278.353
1576,278.838
1577,277.999
1578,88.853
1579,74.927
1580,98.677
1581,98.677
1582,98.677
1583,98.677
1584,98.677
1585,98.677
1586,98.677
1587,98.677
1588,98.677
1589,98.677
1590,98.677
1591,106.1
1592,147.452
1593,229.727
1594,277.999
1595,277.999
1596,277.999
1597,250.574
1598,278.868
1599,281.846
1600,282.548
1601,279.395
1602,88.853
1603,74.927
1604,98.677
1605,98.677
1606,98.677
1607,98.677
1608,98.677
1609,98.677
1610,98.677
1611,98.677
1612,98.677
1613,98.677
1614,98.677
1615,106.1
1616,147.452
1617,229.727
1618,277.999
1619,277.999
1620,277.999
1621,250.866
1622,284.276
1623,287.089
1624,288.84
1625,287.209
1626,88.853
1627,74.927
1628,98.677
1629,98.677
1630,98.677
1631,98.677
1632,98.677
1633,98.677
1634,98.677
1635,98.677
1636,98.677
1637,98.677
1638,98.677
1639,106.1
1640,147.452
1641,229.727
1642,277.999
1643,277.999
1644,277.999
1645,250.574
1646,277.999
1647,277.999
1648,277.999
1649,277.999
1650,88.853
1651,74.927
1652,98.677
1653,98.677
1654,98.677
1655,98.677
1656,98.677
1657,98.677
1658,98.677
1659,98.777
1660,101.701
1661,102.599
1662,103.454
1663,68.706
1664,58.599
1665,65.177
1666,107.518
1667,107.518
1668,107.518
1669,58.599
1670,58.599
1671,58.599
1672,58.599
1673,27.425
1674,27.425
1675,74.927
1676,98.677
1677,98.677
1678,98.677
1679,98.677
1680,98.677
1681,98.677
1682,98.677
1683,98.677
1684,98.677
1685,98.677
1686,98.677
1687,63.051
1688,27.425
1689,27.425
1690,27.425
1691,27.425
1692,27.425
1693,27.425
1694,27.425
1695,27.425
1696,27.425
1697,27.425
1698,27.425
1699,74.927
1700,98.677
1701,98.677
1702,98.677
1703,98.677
1704,98.677
1705,98.677
1706,98.677
1707,98.677
1708,98.677
1709,98.677
1710,129.851
1711,183.078
1712,229.727
1713,277.999
1714,277.999
1715,277.999
1716,253.722
1717,287.318
1718,289.035
1719,291.135
1720,294.213
1721,88.853
1722,27.425
1723,74.927
1724,98.677
1725,98.677
1726,98.677
1727,98.677
1728,98.677
1729,98.677
1730,98.677
1731,98.677
1732,98.677
1733,98.677
1734,129.851
1735,183.078
1736,229.727
1737,277.999
1738,279.369
1739,283.753
1740,251.368
1741,277.999
1742,278.282
1743,282.576
1744,284.344
1745,88.853
1746,27.425
1747,74.927
1748,98.677
1749,98.677
1750,98.677
1751,98.677
1752,98.677
1753,98.677
1754,99.987
1755,102.985
1756,103.795
1757,104.908
1758,129.851
1759,183.078
1760,229.727
1761,277.999
1762,277.999
1763,277.999
1764,250.574
1765,277.999
1766,277.999
1767,277.999
1768,277.999
1769,88.853
1770,27.425
1771,74.927
1772,98.677
1773,99.866
1774,101.515
1775,105.493
1776,105.913
1777,111.055
1778,109.796
1779,115.484
1780,112.038
1781,117.548
1782,129.851
1783,183.078
1784,229.727
1785,277.999
1786,277.999
1787,277.999
1788,250.574
1789,277.999
1790,277.999
1791,277.999
1792,277.999
1793,88.853
1794,27.425
1795,74.927
1796,98.677
1797,98.677
1798,98.677
1799,98.677
1800,98.677
1801,100.262
1802,101.697
1803,102.189
1804,102.272
1805,104.025
1806,129.851
1807,183.078
1808,229.727
1809,277.999
1810,277.999
1811,277.999
1812,250.574
1813,277.999
1814,277.999
1815,277.999
1816,277.999
1817,88.853
1818,27.425
1819,74.927
1820,98.677
1821,98.677
1822,98.677
1823,98.677
1824,98.677
1825,98.677
1826,98.677
1827,98.677
1828,98.677
1829,98.677
1830,98.677
1831,94.225
1832,65.177
1833,107.518
1834,107.518
1835,107.518
1836,58.599
1837,58.599
1838,58.599
1839,58.599
1840,27.425
1841,27.425
1842,27.425
1843,74.927
1844,98.677
1845,98.677
1846,98.677
1847,98.677
1848,98.677
1849,98.677
1850,98.677
1851,98.677
1852,98.677
1853,98.677
1854,98.677
1855,63.051
1856,27.425
1857,27.425
1858,27.425
1859,27.425
1860,27.425
1861,27.425
1862,27.425
1863,27.425
1864,27.425
1865,27.425
1866,27.425
1867,74.927
1868,98.677
1869,98.677
1870,98.677
1871,98.835
1872,101.699
1873,103.045
1874,104.066
1875,105.064
1876,105.631
1877,106.834
1878,129.851
1879,171.202
1880,229.727
1881,277.999
1882,277.999
1883,277.999
1884,250.574
1885,277.999
1886,277.999
1887,277.999
1888,277.999
1889,88.853
1890,27.425
1891,74.927
1892,98.677
1893,98.677
1894,98.677
1895,100.298
1896,102.265
1897,104.435
1898,105.298
1899,107.239
1900,107.022
1901,108.239
1902,129.851
1903,171.202
1904,229.727
1905,277.999
1906,277.999
1907,277.999
1908,250.574
1909,277.999
1910,277.999
1911,277.999
1912,277.999
1913,88.853
1914,27.425
1915,74.927
1916,98.677
1917,98.677
1918,98.677
1919,98.677
1920,98.677
1921,98.677
1922,98.677
1923,100.475
1924,102.116
1925,103.428
1926,129.851
1927,171.202
1928,229.727
1929,277.999
1930,277.999
1931,277.999
1932,250.574
1933,277.999
1934,277.999
1935,277.999
1936,277.999
1937,88.853
1938,27.425
1939,74.927
1940,98.677
1941,98.677
1942,98.677
1943,98.677
1944,98.677
1945,98.677
1946,98.677
1947,98.677
1948,98.677
1949,98.677
1950,129.851
1951,171.202
1952,229.727
1953,277.999
1954,277.999
1955,277.999
1956,250.574
1957,277.999
1958,278.402
1959,279.983
1960,280.575
1961,88.853
1962,27.425
1963,74.927
1964,98.677
1965,98.677
1966,98.677
1967,98.677
1968,98.677
1969,98.677
1970,98.677
1971,98.677
1972,98.677
1973,98.677
1974,129.851
1975,171.202
1976,229.727
1977,277.999
1978,277.999
1979,277.999
1980,251.116
1981,281.917
1982,282.849
1983,281.417
1984,280.466
1985,88.853
1986,27.425
1987,74.927
1988,98.677
1989,98.677
1990,98.677
1991,98.677
1992,98.677
1993,98.677
1994,98.677
1995,98.677
1996,98.677
1997,98.677
1998,98.677
1999,82.35
2000,65.177
2001,107.518
2002,107.518
2003,107.518
2004,58.599
2005,58.599
2006,58.599
2007,58.599
2008,27.425
2009,27.425
2010,27.425
2011,63.051
2012,98.677
2013,98.677
2014,98.677
2015,98.677
2016,98.677
2017,98.677
2018,98.677
2019,98.677
2020,98.677
2021,98.677
2022,98.677
2023,51.176
2024,27.425
2025,27.425
2026,27.425
2027,27.425
2028,27.425
2029,27.425
2030,27.425
2031,27.425
2032,27.425
2033,27.425
2034,27.425
2035,63.051
2036,98.677
2037,98.677
2038,98.677
2039,98.677
2040,98.677
2041,98.677
2042,98.677
2043,98.677
2044,98.677
2045,98.677
2046,129.851
2047,171.202
2048,229.727
2049,277.999
2050,277.999
2051,278.413
2052,251.943
2053,285.068
2054,288.056
2055,289.601
2056,289.929
2057,88.853
2058,27.425
2059,63.051
2060,98.677
2061,98.677
2062,98.677
2063,98.677
2064,98.677
2065,98.677
2066,98.677
2067,98.677
2068,98.677
2069,98.677
2070,129.851
2071,171.202
2072,229.727
2073,277.999
2074,277.999
2075,278.934
2076,254.61
2077,284.994
2078,287.089
2079,287.998
2080,286.308
2081,88.853
2082,27.425
2083,63.051
2084,98.677
2085,98.677
2086,98.677
2087,98.677
2088,98.677
2089,98.677
2090,98.677
2091,98.677
2092,98.677
2093,98.677
2094,129.851
2095,171.202
2096,229.727
2097,277.999
2098,277.999
2099,278.027
2100,250.676
2101,280.795
2102,285.123
2103,287.231
2104,285.158
2105,88.853
2106,27.425
2107,63.051
2108,98.677
2109,98.677
2110,98.677
2111,98.677
2112,98.677
2113,98.677
2114,98.677
2115,98.677
2116,98.677
2117,98.677
2118,129.851
2119,159.327
2120,229.727
2121,277.999
2122,277.999
2123,278.789
2124,254.013
2125,284.296
2126,286.471
2127,286.02
2128,286.161
2129,88.853
2130,27.425
2131,63.051
2132,98.677
2133,98.677
2134,98.677
2135,98.677
2136,98.677
2137,98.677
2138,98.677
2139,98.677
2140,98.677
2141,98.677
2142,129.851
2143,159.327
2144,229.727
2145,277.999
2146,277.999
2147,277.999
2148,250.574
2149,279.514
2150,281.343
2151,282.901
2152,284.281
2153,88.853
2154,27.425
2155,63.051
2156,98.677
2157,98.677
2158,98.677
2159,98.677
2160,98.677
2161,98.677
2162,98.677
2163,98.677
2164,98.677
2165,98.677
2166,98.677
2167,70.474
2168,65.177
2169,107.518
2170,107.518
2171,107.566
2172,60.622
2173,64.986
2174,68.036
2175,70.001
2176,27.425
2177,27.425
2178,27.425
2179,63.051
2180,98.677
2181,98.677
2182,98.677
2183,98.677
2184,98.677
2185,98.677
2186,98.677
2187,98.677
2188,98.677
2189,98.677
2190,98.677
2191,39.3
2192,27.425
2193,27.425
2194,27.425
2195,27.425
2196,27.425
2197,27.425
2198,27.425
2199,27.425
2200,27.425
2201,27.425
2202,27.425
2203,63.051
2204,98.677
2205,98.677
2206,98.677
2207,98.677
2208,98.677
2209,98.677
2210,98.677
2211,98.677
2212,98.677
2213,98.677
2214,129.851
2215,159.327
2216,229.727
2217,281.734
2218,287.218
2219,291.452
2220,265.27
2221,295.368
2222,311.653
2223,324.881
2224,323.649
2225,88.853
2226,27.425
2227,63.051
2228,98.677
2229,98.677
2230,98.677
2231,98.677
2232,98.677
2233,98.677
2234,98.677
2235,98.677
2236,98.677
2237,98.677
2238,129.851
2239,159.327
2240,229.727
2241,283.007
2242,286.639
2243,290.654
2244,265.389
2245,295.191
2246,301.21
2247,301.522
2248,305.658
2249,88.853
2250,27.425
2251,63.051
2252,98.677
2253,98.677
2254,98.677
2255,98.677
2256,98.677
2257,98.677
2258,98.677
2259,98.677
2260,98.677
2261,98.677
2262,129.851
2263,159.327
2264,229.727
2265,283.125
2266,286.33
2267,288.767
2268,263.332
2269,293.497
2270,292.99
2271,290.682
2272,289.565
2273,88.853
2274,27.425
2275,63.051
2276,98.677
2277,98.677
2278,98.677
2279,98.677
2280,98.677
2281,98.677
2282,98.677
2283,98.677
2284,98.677
2285,98.677
2286,129.851
2287,159.327
2288,229.727
2289,277.999
2290,277.999
2291,277.999
2292,250.574
2293,277.999
2294,277.999
2295,277.999
2296,277.999
2297,88.853
2298,27.425
2299,63.051
2300,98.677
2301,98.677
2302,98.677
2303,98.677
2304,98.677
2305,98.677
2306,98.677
2307,98.677
2308,98.677
2309,98.677
2310,129.851
2311,159.327
2312,229.727
2313,277.999
2314,277.999
2315,277.999
2316,250.574
2317,277.999
2318,277.999
2319,277.999
2320,277.999
2321,88.853
2322,27.425
2323,63.051
2324,98.677
2325,98.677
2326,98.677
2327,98.677
2328,98.677
2329,98.677
2330,98.677
2331,98.677
2332,98.677
2333,98.677
2334,98.677
2335,58.599
2336,65.177
2337,107.518
2338,107.518
2339,107.518
2340,58.599
2341,58.599
2342,58.851
2343,59.909
2344,27.425
2345,27.425
2346,27.425
2347,63.051
2348,98.677
2349,98.677
2350,98.677
2351,98.677
2352,98.677
2353,98.677
2354,98.677
2355,98.677
2356,98.677
2357,98.677
2358,98.677
2359,27.425
2360,27.425
2361,27.425
2362,27.425
2363,27.425
2364,27.425
2365,27.425
2366,27.425
2367,27.425
2368,27.425
2369,27.425
2370,27.425
2371,63.051
2372,98.677
2373,98.677
2374,98.677
2375,98.677
2376,98.677
2377,98.677
2378,98.677
2379,98.677
2380,98.782
2381,100.87
2382,129.851
2383,147.452
2384,229.727
2385,277.999
2386,277.999
2387,277.999
2388,250.574
2389,282.191
2390,285.143
2391,286.059
2392,283.536
2393,88.853
2394,27.425
2395,63.051
2396,98.677
2397,98.677
2398,98.677
2399,98.677
2400,98.677
2401,98.677
2402,98.677
2403,98.677
2404,98.677
2405,98.677
2406,129.851
2407,147.452
2408,229.727
2409,277.999
2410,277.999
2411,280.611
2412,254.513
2413,284.592
2414,285.497
2415,285.185
2416,284.362
2417,88.853
2418,27.425
2419,63.051
2420,98.677
2421,98.677
2422,98.677
2423,98.677
2424,98.677
2425,98.677
2426,98.677
2427,98.677
2428,98.677
2429,98.677
2430,129.851
2431,147.452
2432,229.727
2433,277.999
2434,281.56
2435,285.48
2436,258.212
2437,288.115
2438,289.742
2439,290.59
2440,290.495
2441,88.853
2442,27.425
2443,63.051
2444,98.677
2445,98.677
2446,98.677
2447,98.677
2448,98.677
2449,98.677
2450,98.677
2451,98.677
2452,98.677
2453,98.677
2454,129.851
2455,147.452
2456,229.727
2457,280.486
2458,285.968
2459,289.581
2460,263.409
2461,293.947
2462,295.572
2463,302.918
2464,307.976
2465,88.853
2466,27.425
2467,63.051
2468,98.677
2469,98.677
2470,98.677
2471,98.677
2472,98.677
2473,98.677
2474,98.677
2475,98.677
2476,98.677
2477,98.677
2478,129.851
2479,147.452
2480,229.727
2481,279.888
2482,285.741
2483,289.21
2484,262.967
2485,292.354
2486,293.651
2487,295.901
2488,301.625
2489,88.853
2490,27.425
2491,63.051
2492,98.677
2493,98.677
2494,98.677
2495,98.677
2496,98.677
2497,98.677
2498,98.677
2499,98.677
2500,98.677
2501,98.677
2502,98.677
2503,58.599
2504,65.177
2505,107.518
2506,107.711
2507,111.341
2508,63.937
2509,66.469
2510,69.526
2511,70.937
2512,27.425
2513,27.425
2514,27.425
2515,63.051
2516,98.677
2517,98.677
2518,98.677
2519,98.677
2520,98.677
2521,98.677
2522,98.677
2523,98.677
2524,98.677
2525,98.677
2526,98.677
2527,27.425
2528,27.425
2529,27.425
2530,27.425
2531,27.425
2532,27.425
2533,27.425
2534,27.425
2535,27.425
2536,27.425
2537,27.425
2538,27.425
2539,51.176
2540,98.677
2541,98.677
2542,98.677
2543,98.677
2544,98.677
2545,98.677
2546,98.677
2547,98.677
2548,98.677
2549,98.677
2550,129.851
2551,147.452
2552,229.727
2553,277.999
2554,277.999
2555,280.934
2556,259.977
2557,293.061
2558,295.642
2559,287.455
2560,279.196
2561,88.853
2562,27.425
2563,51.176
2564,98.677
2565,98.677
2566,98.677
2567,98.677
2568,98.677
2569,98.677
2570,98.677
2571,98.677
2572,98.677
2573,98.677
2574,117.976
2575,147.452
2576,229.727
2577,277.999
2578,277.999
2579,279.461
2580,254.724
2581,285.108
2582,287.191
2583,288.123
2584,287.784
2585,88.853
2586,27.425
2587,51.176
2588,98.677
2589,98.677
2590,98.677
2591,98.677
2592,98.677
2593,98.677
2594,98.677
2595,98.677
2596,98.677
2597,98.677
2598,117.976
2599,147.452
2600,229.727
2601,277.999
2602,277.999
2603,278.733
2604,253.027
2605,282.858
2606,284.094
2607,285.632
2608,285.523
2609,88.853
2610,27.425
2611,51.176
2612,98.677
2613,98.677
2614,98.677
2615,98.677
2616,98.677
2617,98.677
2618,98.677
2619,98.677
2620,98.677
2621,98.677
2622,117.976
2623,147.452
2624,229.727
2625,277.999
2626,277.999
2627,280.618
2628,255.123
2629,284.687
2630,285.977
2631,286.625
2632,286.554
2633,88.853
2634,27.425
2635,51.176
2636,98.677
2637,98.677
2638,98.677
2639,98.677
2640,98.677
2641,98.677
2642,98.677
2643,98.677
2644,98.677
2645,98.677
2646,117.976
2647,147.452
2648,229.727
2649,277.999
2650,279.293
2651,283.13
2652,257.068
2653,284.778
2654,286.082
2655,287.664
2656,286.034
2657,88.853
2658,27.425
2659,51.176
2660,98.677
2661,98.677
2662,98.677
2663,98.677
2664,98.677
2665,98.677
2666,98.677
2667,98.677
2668,98.677
2669,98.677
2670,86.802
2671,58.599
2672,65.177
2673,107.518
2674,107.518
2675,107.518
2676,58.599
2677,59.219
2678,61.062
2679,61.874
2680,27.425
2681,27.425
2682,27.425
2683,51.176
2684,98.677
2685,98.677
2686,98.677
2687,98.677
2688,98.677
2689,98.677
2690,98.677
2691,98.677
2692,98.677
2693,98.677
2694,86.802
2695,27.425
2696,27.425
2697,27.425
2698,27.425
2699,27.425
2700,27.425
2701,27.425
2702,27.425
2703,27.425
2704,27.425
2705,27.425
2706,27.425
2707,51.176
2708,98.677
2709,98.677
2710,98.677
2711,98.677
2712,98.677
2713,98.677
2714,98.677
2715,98.677
2716,98.677
2717,98.677
2718,117.976
2719,147.452
2720,229.727
2721,277.999
2722,277.999
2723,283.173
2724,260.861
2725,294.911
2726,317.995
2727,310.793
2728,292.877
2729,88.853
2730,27.425
2731,51.176
2732,98.677
2733,98.677
2734,98.677
2735,98.677
2736,98.677
2737,98.677
2738,98.677
2739,98.677
2740,98.677
2741,98.677
2742,117.976
2743,147.452
2744,229.727
2745,277.999
2746,277.999
2747,279.59
2748,253.63
2749,283.273
2750,284.863
2751,285.24
2752,284.264
2753,88.853
2754,27.425
2755,51.176
2756,98.677
2757,98.677
2758,98.677
2759,98.677
2760,98.677
2761,98.677
2762,98.677
2763,98.677
2764,98.677
2765,98.677
2766,117.976
2767,147.452
2768,229.727
2769,277.999
2770,277.999
2771,277.999
2772,250.574
2773,279.332
2774,281.969
2775,282.84
2776,282.394
2777,88.853
2778,27.425
2779,51.176
2780,98.677
2781,98.677
2782,98.677
2783,98.677
2784,98.677
2785,98.677
2786,98.677
2787,98.677
2788,98.677
2789,98.677
2790,117.976
2791,147.452
2792,229.727
2793,277.999
2794,277.999
2795,277.999
2796,250.803
2797,282.026
2798,284.125
2799,284.242
2800,283.755
2801,88.853
2802,27.425
2803,51.176
2804,98.677
2805,98.677
2806,98.677
2807,98.677
2808,98.677
2809,98.677
2810,98.677
2811,98.677
2812,98.677
2813,98.677
2814,117.976
2815,147.452
2816,229.727
2817,277.999
2818,277.999
2819,279.655
2820,253.161
2821,283.422
2822,285.371
2823,286.146
2824,285.255
2825,88.853
2826,27.425
2827,51.176
2828,98.677
2829,98.677
2830,98.677
2831,98.677
2832,98.677
2833,98.677
2834,98.677
2835,98.677
2836,98.677
2837,98.677
2838,86.802
2839,58.599
2840,65.177
2841,107.518
2842,107.518
2843,107.518
2844,58.599
2845,58.599
2846,58.599
2847,58.601
2848,27.425
2849,27.425
2850,27.425
2851,51.176
2852,98.677
2853,98.677
2854,98.677
2855,98.677
2856,98.677
2857,98.677
2858,98.677
2859,98.677
2860,98.677
2861,98.677
2862,74.927
2863,27.425
2864,27.425
2865,27.425
2866,27.425
2867,27.425
2868,27.425
2869,27.425
2870,27.425
2871,27.425
2872,27.425
2873,27.425
2874,27.425
2875,51.176
2876,98.677
2877,98.677
2878,98.677
2879,98.677
2880,98.677
2881,98.677
2882,98.677
2883,98.677
2884,98.677
2885,98.677
2886,106.1
2887,147.452
2888,229.727
2889,277.999
2890,277.999
2891,279.987
2892,256.322
2893,286.763
2894,289.016
2895,291.292
2896,288.783
2897,88.853
2898,27.425
2899,51.176
2900,98.677
2901,98.677
2902,98.677
2903,98.677
2904,98.677
2905,98.677
2906,98.677
2907,98.677
2908,98.677
2909,98.677
2910,106.1
2911,147.452
2912,229.727
2913,277.999
2914,277.999
2915,277.999
2916,251.203
2917,282.275
2918,283.564
2919,281.049
2920,278.244
2921,88.853
2922,27.425
2923,51.176
2924,98.677
2925,98.677
2926,98.677
2927,98.677
2928,98.677
2929,98.677
2930,98.677
2931,98.677
2932,98.677
2933,98.677
2934,106.1
2935,147.452
2936,229.727
2937,278.459
2938,284.787
2939,289.928
2940,263.204
2941,292.69
2942,295.302
2943,301.138
2944,296.889
2945,88.853
2946,27.425
2947,51.176
2948,98.677
2949,98.677
2950,98.677
2951,98.677
2952,98.677
2953,98.677
2954,98.677
2955,98.677
2956,98.677
2957,98.677
2958,106.1
2959,147.452
2960,229.727
2961,281.56
2962,288.076
2963,292.86
2964,281.582
2965,322.897
2966,327.382
2967,328.43
2968,313.078
2969,88.853
2970,27.425
2971,51.176
2972,98.677
2973,98.677
2974,98.677
2975,98.677
2976,98.677
2977,98.677
2978,98.677
2979,98.677
2980,98.677
2981,98.677
2982,106.1
2983,147.452
2984,229.727
2985,277.999
2986,278.861
2987,285.293
2988,261.199
2989,293.871
2990,314.983
2991,332.18
2992,337.611
2993,88.853
2994,27.425
2995,51.176
2996,98.677
2997,98.677
2998,98.677
2999,98.677
3000,98.677
3001,98.677
3002,98.677
3003,98.677
3004,98.677
3005,98.677
3006,74.927
3007,58.599
3008,65.177
3009,107.518
3010,107.518
3011,107.518
3012,59.766
3013,63.192
3014,65.614
3015,66.528
3016,27.425
3017,27.425
3018,27.425
3019,39.3
3020,98.677
3021,98.677
3022,98.677
3023,98.677
3024,98.677
3025,98.677
3026,98.677
3027,98.677
3028,98.677
3029,98.677
3030,74.927
3031,27.425
3032,27.425
3033,27.425
3034,27.425
3035,27.425
3036,27.425
3037,27.425
3038,27.425
3039,27.425
3040,27.425
3041,27.425
3042,27.425
3043,39.3
3044,98.677
3045,98.677
3046,98.677
3047,98.677
3048,98.677
3049,98.677
3050,98.677
3051,98.677
3052,98.677
3053,98.677
3054,106.1
3055,147.452
3056,229.727
3057,278.445
3058,283.586
3059,288.821
3060,263.015
3061,297.609
3062,323.743
3063,335.52
3064,339.712
3065,109.224
3066,27.425
3067,39.3
3068,98.677
3069,98.677
3070,98.677
3071,98.677
3072,98.677
3073,98.677
3074,98.677
3075,98.677
3076,98.677
3077,98.677
3078,106.1
3079,147.452
3080,235.348
3081,293.409
3082,297.703
3083,319.048
3084,316.369
3085,362.301
3086,369.878
3087,364.974
3088,324.979
3089,88.853
3090,27.425
3091,39.3
3092,98.677
3093,98.677
3094,98.677
3095,98.677
3096,98.677
3097,98.677
3098,98.677
3099,98.677
3100,98.677
3101,98.677
3102,106.1
3103,147.452
3104,229.727
3105,277.999
3106,279.516
3107,287.982
3108,263.276
3109,293.334
3110,309.136
3111,324.105
3112,325.304
3113,88.853
3114,27.425
3115,39.3
3116,98.677
3117,98.677
3118,98.677
3119,98.677
3120,98.677
3121,98.677
3122,98.677
3123,98.677
3124,98.677
3125,98.677
3126,106.1
3127,147.452
3128,229.805
3129,283.865
3130,287.173
3131,290.166
3132,265.847
3133,309.6
3134,321.241
3135,332.474
3136,330.598
3137,88.853
3138,27.425
3139,39.3
3140,98.677
3141,98.677
3142,98.677
3143,98.677
3144,98.677
3145,98.677
3146,98.677
3147,98.677
3148,98.677
3149,98.677
3150,106.1
3151,147.452
3152,231.289
3153,285.859
3154,288.874
3155,293.303
3156,266.34
3157,298.795
3158,318.561
3159,334.302
3160,330.275
3161,88.853
3162,27.425
3163,39.3
3164,98.677
3165,98.677
3166,98.677
3167,98.677
3168,98.677
3169,98.677
3170,98.677
3171,98.677
3172,98.677
3173,98.677
3174,74.927
3175,58.599
3176,65.177
3177,109.95
3178,114.11
3179,116.291
3180,67.238
3181,69.625
3182,82.088
3183,95.645
3184,27.425
3185,27.425
3186,27.425
3187,39.3
3188,98.677
3189,98.677
3190,98.677
3191,98.677
3192,98.677
3193,98.677
3194,98.677
3195,98.677
3196,98.677
3197,98.677
3198,74.927
3199,27.425
3200,27.425
3201,27.425
3202,27.425
3203,27.425
3204,27.425
3205,27.425
3206,27.425
3207,27.425
3208,27.425
3209,27.425
3210,27.425
3211,39.3
3212,98.677
3213,98.677
3214,98.677
3215,98.677
3216,98.677
3217,98.677
3218,98.677
3219,98.677
3220,98.677
3221,98.677
3222,94.225
3223,148.295
3224,238.069
3225,291.845
3226,295.019
3227,315.918
3228,300.081
3229,343.876
3230,360.692
3231,368.054
3232,372.503
3233,123.001
3234,58.459
3235,39.3
3236,98.677
3237,98.677
3238,98.677
3239,98.677
3240,98.677
3241,98.677
3242,98.677
3243,98.677
3244,98.677
3245,98.677
3246,94.225
3247,154.471
3248,241.6
3249,293.664
3250,304.627
3251,327.375
3252,307.636
3253,343.407
3254,363.326
3255,374.084
3256,369.976
3257,119.77
3258,53.426
3259,39.3
3260,98.677
3261,98.677
3262,98.677
3263,98.677
3264,98.677
3265,98.677
3266,98.677
3267,98.677
3268,98.677
3269,98.677
3270,94.225
3271,154.368
3272,241.241
3273,293.733
3274,308.06
3275,328.33
3276,300.618
3277,340.069
3278,351.48
3279,353.405
3280,354.601
3281,111.068
3282,27.425
3283,39.3
3284,98.677
3285,98.677
3286,98.677
3287,98.677
3288,98.677
3289,98.677
3290,98.677
3291,98.677
3292,98.677
3293,98.677
3294,94.225
3295,151.11
3296,240.674
3297,294.471
3298,298.57
3299,313.801
3300,300.921
3301,342.198
3302,363.567
3303,371.061
3304,363.171
3305,115.185
3306,50.465
3307,39.3
3308,98.677
3309,98.677
3310,98.677
3311,98.677
3312,98.677
3313,98.677
3314,98.677
3315,98.677
3316,98.677
3317,98.677
3318,94.225
3319,150.001
3320,241.536
3321,294.669
3322,311.012
3323,328.293
3324,303.589
3325,349.149
3326,369.358
3327,381.285
3328,378.434
3329,122.111
3330,56.123
3331,39.3
3332,98.677
3333,98.677
3334,98.677
3335,98.677
3336,98.677
3337,98.677
3338,98.677
3339,98.677
3340,98.677
3341,98.677
3342,63.051
3343,58.599
3344,72.127
3345,117.469
3346,118.884
3347,122.959
3348,84.364
3349,118.109
3350,137.693
3351,102.608
3352,27.425
3353,27.425
3354,27.425
3355,39.3
3356,98.677
3357,98.677
3358,98.677
3359,98.677
3360,98.677
3361,98.677
3362,98.677
3363,98.677
3364,98.677
3365,98.677
3366,63.051
3367,27.425
3368,27.425
3369,27.425
3370,27.425
3371,27.425
3372,27.425
3373,27.425
3374,27.425
3375,27.425
3376,27.425
3377,27.425
3378,27.425
3379,39.3
3380,98.677
3381,98.677
3382,98.677
3383,98.677
3384,98.677
3385,98.677
3386,98.677
3387,98.677
3388,98.677
3389,98.677
3390,94.225
3391,148.711
3392,238.137
3393,291.546
3394,296.325
3395,313.439
3396,270.601
3397,297.361
3398,343.27
3399,349.845
3400,310.862
3401,88.853
3402,27.425
3403,39.3
3404,98.677
3405,98.677
3406,98.677
3407,98.677
3408,98.677
3409,98.677
3410,98.677
3411,98.677
3412,98.677
3413,98.677
3414,94.225
3415,147.452
3416,237.385
3417,292.146
3418,294.315
3419,300.112
3420,307.469
3421,353.798
3422,314.131
3423,293.282
3424,288.601
3425,88.853
3426,27.425
3427,39.3
3428,98.677
3429,98.677
3430,98.677
3431,98.677
3432,98.677
3433,98.677
3434,98.677
3435,98.677
3436,98.677
3437,98.677
3438,94.225
3439,147.452
3440,231.457
3441,290.334
3442,295.726
3443,324.964
3444,323.398
3445,376.743
3446,402.605
3447,426.879
3448,346.809
3449,88.853
3450,27.425
3451,39.3
3452,98.677
3453,98.677
3454,98.677
3455,98.677
3456,98.677
3457,98.677
3458,98.677
3459,98.677
3460,98.677
3461,98.677
3462,94.225
3463,147.452
3464,232.131
3465,292.031
3466,296.115
3467,294.369
3468,255.266
3469,277.999
3470,278.779
3471,281.173
3472,279.333
3473,88.853
3474,27.425
3475,27.425
3476,98.677
3477,98.677
3478,98.677
3479,98.677
3480,98.677
3481,98.677
3482,98.677
3483,98.677
3484,98.677
3485,98.677
3486,94.225
3487,147.452
3488,229.727
3489,277.999
3490,277.999
3491,279.666
3492,256.481
3493,289.819
3494,290.522
3495,286.976
3496,287.002
3497,88.853
3498,27.425
3499,27.425
3500,98.677
3501,98.677
3502,98.677
3503,98.677
3504,98.677
3505,98.677
3506,98.677
3507,98.677
3508,98.677
3509,98.677
3510,63.051
3511,58.599
3512,65.177
3513,107.518
3514,108.567
3515,113.886
3516,66.5
3517,68.386
3518,69.656
3519,74.946
3520,27.425
3521,27.425
3522,27.425
3523,27.425
3524,98.677
3525,98.677
3526,98.677
3527,98.677
3528,98.677
3529,98.677
3530,98.677
3531,98.677
3532,98.677
3533,98.677
3534,63.051
3535,27.425
3536,27.425
3537,27.425
3538,27.425
3539,27.425
3540,27.425
3541,27.425
3542,27.425
3543,27.425
3544,27.425
3545,27.425
3546,27.425
3547,27.425
3548,98.677
3549,98.677
3550,98.677
3551,98.677
3552,98.677
3553,98.677
3554,98.677
3555,98.677
3556,98.677
3557,98.677
3558,63.051
3559,27.425
3560,27.425
3561,27.425
3562,27.425
3563,27.425
3564,27.425
3565,27.425
3566,27.425
3567,27.425
3568,27.425
3569,27.425
3570,27.425
3571,27.425
3572,98.677
3573,98.677
3574,98.677
3575,98.677
3576,98.677
3577,98.677
3578,98.677
3579,98.677
3580,98.677
3581,98.677
3582,94.225
3583,148.45
3584,238.274
3585,290.641
3586,293.097
3587,307.973
3588,289.795
3589,322.029
3590,327.998
3591,325.768
3592,321.742
3593,88.853
3594,27.425
3595,27.425
3596,98.677
3597,98.677
3598,98.677
3599,98.677
3600,98.677
3601,98.677
3602,98.677
3603,98.677
3604,98.677
3605,98.677
3606,94.225
3607,148.155
3608,237.149
3609,291.099
3610,293.277
3611,294.693
3612,277.719
3613,321.652
3614,328.014
3615,334.475
3616,340.095
3617,88.853
3618,27.425
3619,27.425
3620,98.677
3621,98.677
3622,98.677
3623,98.677
3624,98.677
3625,98.677
3626,98.677
3627,98.677
3628,98.677
3629,98.677
3630,94.225
3631,150.621
3632,239.666
3633,294.118
3634,297.917
3635,309.818
3636,270.892
3637,294.419
3638,320.261
3639,336.892
3640,340.211
3641,102.76
3642,29.992
3643,27.425
3644,98.677
3645,98.677
3646,98.677
3647,98.677
3648,98.677
3649,98.677
3650,98.677
3651,98.677
3652,98.677
3653,98.677
3654,94.225
3655,151.554
3656,237.858
3657,289.829
3658,291.365
3659,301.769
3660,287.329
3661,324.643
3662,331.976
3663,342.382
3664,345.273
3665,106.356
3666,42.191
3667,27.425
3668,98.677
3669,98.677
3670,98.677
3671,98.677
3672,98.677
3673,98.677
3674,98.677
3675,98.677
3676,98.677
3677,98.677
3678,63.051
3679,58.599
3680,67.299
3681,113.773
3682,115.119
3683,116.794
3684,79.312
3685,96.658
3686,104.141
3687,102.492
3688,46.584
3689,44.974
3690,27.425
3691,27.425
3692,98.677
3693,98.677
3694,98.677
3695,98.677
3696,98.677
3697,98.677
3698,98.677
3699,98.677
3700,98.677
3701,98.677
3702,63.051
3703,27.425
3704,27.425
3705,27.425
3706,27.425
3707,27.425
3708,27.425
3709,27.425
3710,27.425
3711,46.896
3712,27.425
3713,27.425
3714,27.425
3715,27.425
3716,98.677
3717,98.677
3718,98.677
3719,98.677
3720,98.677
3721,98.677
3722,98.677
3723,98.677
3724,98.677
3725,98.677
3726,94.225
3727,155.547
3728,242.34
3729,293.172
3730,306.485
3731,307.489
3732,264.077
3733,290.713
3734,291.649
3735,291.107
3736,289.171
3737,88.853
3738,27.425
3739,27.425
3740,98.677
3741,98.677
3742,98.677
3743,98.677
3744,98.677
3745,98.677
3746,98.677
3747,98.677
3748,98.677
3749,98.677
3750,94.225
3751,148.181
3752,235.784
3753,289.714
3754,293.19
3755,306.078
3756,306.581
3757,359.629
3758,382.016
3759,402.584
3760,414.787
3761,186.077
3762,90.607
3763,73.047
3764,107.166
3765,98.677
3766,98.677
3767,98.677
3768,98.677
3769,98.677
3770,98.677
3771,98.677
3772,98.677
3773,98.677
3774,94.225
3775,147.452
3776,235.528
3777,290.253
3778,310.549
3779,343.059
3780,332.601
3781,369.951
3782,376.922
3783,381.263
3784,381.304
3785,146.321
3786,66.78
3787,48.318
3788,98.677
3789,98.677
3790,98.677
3791,98.677
3792,98.677
3793,98.677
3794,98.677
3795,98.677
3796,98.677
3797,98.677
3798,94.225
3799,147.452
3800,233.258
3801,289.143
3802,300.706
3803,330.879
3804,318.592
3805,363.837
3806,383.827
3807,398.479
3808,405.727
3809,171.926
3810,75.051
3811,50.187
3812,98.677
3813,98.677
3814,98.677
3815,98.677
3816,98.677
3817,98.677
3818,98.677
3819,98.677
3820,98.677
3821,98.677
3822,94.225
3823,147.452
3824,234.477
3825,290.577
3826,325.314
3827,355.342
3828,341.176
3829,380.492
3830,389.612
3831,407.368
3832,419.782
3833,186.958
3834,90.525
3835,75.902
3836,108.665
3837,98.677
3838,98.677
3839,98.677
3840,98.677
3841,98.677
3842,98.677
3843,98.677
3844,98.677
3845,98.677
3846,63.051
3847,58.599
3848,66.945
3849,115.832
3850,135.925
3851,168.644
3852,139.669
3853,159.747
3854,153.62
3855,123.792
3856,27.425
3857,27.425
3858,27.425
3859,27.425
3860,98.677
3861,98.677
3862,98.677
3863,98.677
3864,98.677
3865,98.677
3866,98.677
3867,98.677
3868,98.677
3869,98.677
3870,63.051
3871,27.425
3872,27.425
3873,27.425
3874,27.425
3875,27.425
3876,27.425
3877,27.425
3878,27.425
3879,27.425
3880,54.828
3881,77.724
3882,68.34
3883,33.547
3884,98.677
3885,98.677
3886,98.677
3887,98.677
3888,98.677
3889,98.677
3890,98.677
3891,98.677
3892,98.677
3893,98.677
3894,94.225
3895,148.858
3896,240.549
3897,310.153
3898,351.178
3899,365.444
3900,300.282
3901,314.823
3902,356.159
3903,399.091
3904,365.333
3905,88.853
3906,27.425
3907,27.425
3908,98.677
3909,98.677
3910,98.677
3911,98.677
3912,98.677
3913,98.677
3914,98.677
3915,98.677
3916,98.677
3917,98.677
3918,94.225
3919,147.641
3920,237.565
3921,293.318
3922,330.993
3923,362.034
3924,340.325
3925,369.604
3926,374.479
3927,372.635
3928,380.658
3929,153.443
3930,62.433
3931,27.425
3932,98.677
3933,98.677
3934,98.677
3935,98.677
3936,98.677
3937,98.677
3938,98.677
3939,98.677
3940,98.677
3941,98.677
3942,94.225
3943,147.5
3944,237.171
3945,292.227
3946,326.387
3947,351.736
3948,335.266
3949,370.827
3950,383.027
3951,401.844
3952,403.475
3953,154.308
3954,66.333
3955,46.83
3956,98.677
3957,98.677
3958,98.677
3959,98.677
3960,98.677
3961,98.677
3962,98.677
3963,98.677
3964,98.677
3965,98.677
3966,94.225
3967,152.991
3968,237.939
3969,289.566
3970,292.429
3971,326.473
3972,319.887
3973,366.87
3974,384.309
3975,391.019
3976,396.045
3977,157.226
3978,71.383
3979,49.465
3980,98.677
3981,98.677
3982,98.677
3983,98.677
3984,98.677
3985,98.677
3986,98.677
3987,98.677
3988,98.677
3989,98.677
3990,94.225
3991,155.671
3992,242.532
3993,309.686
3994,348.875
3995,370.271
3996,353.47
3997,390.968
3998,369.45
3999,349.399
4000,376.489
4001,122.689
4002,70.409
4003,37.863
4004,98.677
4005,98.677
4006,98.677
4007,98.677
4008,98.677
4009,98.677
4010,98.677
4011,98.677
4012,98.677
4013,98.677
4014,63.051
4015,58.599
4016,69.641
4017,118.013
4018,132.686
4019,133.391
4020,70.93
4021,97.439
4022,108.015
4023,104.891
4024,27.425
4025,49.124
4026,43.023
4027,27.425
4028,98.677
4029,98.677
4030,98.677
4031,98.677
4032,98.677
4033,98.677
4034,98.677
4035,98.677
4036,98.677
4037,98.677
4038,63.051
4039,27.425
4040,27.425
4041,27.425
4042,27.425
4043,58.059
4044,87.97
4045,74.041
4046,110.79
4047,96.03
4048,125.718
4049,97.697
4050,97.179
4051,58.931
4052,86.802
4053,98.677
4054,98.677
4055,98.677
4056,98.677
4057,98.677
4058,98.677
4059,98.677
4060,98.677
4061,98.677
4062,94.225
4063,153.026
4064,242.213
4065,318.672
4066,358.48
4067,376.85
4068,356.36
4069,381.964
4070,393.928
4071,406.556
4072,415.574
4073,184.81
4074,99.799
4075,88.706
4076,92.428
4077,98.677
4078,98.677
4079,98.677
4080,98.677
4081,98.677
4082,98.677
4083,98.677
4084,98.677
4085,98.677
4086,94.225
4087,155.327
4088,243.564
4089,327.895
4090,361.74
4091,372.377
4092,357.081
4093,400.673
4094,412.454
4095,428.071
4096,434.792
4097,195.627
4098,105.73
4099,98.272
4100,115.59
4101,98.677
4102,98.677
4103,98.677
4104,98.677
4105,98.677
4106,98.677
4107,98.677
4108,98.677
4109,98.677
4110,94.225
4111,162.159
4112,262.804
4113,345.901
4114,373.103
4115,392.413
4116,371.923
4117,406.904
4118,424.387
4119,419.679
4120,408.501
4121,172.949
4122,81.518
4123,67.953
4124,93.247
4125,98.677
4126,98.677
4127,98.677
4128,98.677
4129,98.677
4130,98.677
4131,98.677
4132,98.677
4133,98.677
4134,94.225
4135,161.052
4136,247.273
4137,341.728
4138,364.27
4139,377.297
4140,377.956
4141,397.417
4142,367.124
4143,407.71
4144,414.045
4145,167.118
4146,75.859
4147,54.551
4148,86.802
4149,98.677
4150,98.677
4151,98.677
4152,98.677
4153,98.677
4154,98.677
4155,98.677
4156,98.677
4157,98.677
4158,94.225
4159,156.237
4160,244.022
4161,336.376
4162,376.057
4163,402.958
4164,349.596
4165,305.159
4166,289.479
4167,290.101
4168,290.553
4169,88.853
4170,27.425
4171,27.425
4172,86.802
4173,98.677
4174,98.677
4175,98.677
4176,98.677
4177,98.677
4178,98.677
4179,98.677
4180,98.677
4181,98.677
4182,63.051
4183,58.599
4184,71.346
4185,121.813
4186,151.359
4187,191.562
4188,161.012
4189,168.905
4190,185.756
4191,148.294
4192,27.425
4193,27.425
4194,27.425
4195,27.425
4196,86.802
4197,98.677
4198,98.677
4199,98.677
4200,98.677
4201,98.677
4202,98.677
4203,98.677
4204,98.677
4205,98.677
4206,63.051
4207,27.425
4208,27.425
4209,27.425
4210,53.923
4211,86.295
4212,103.261
4213,49.194
4214,27.425
4215,27.425
4216,27.425
4217,27.425
4218,27.425
4219,27.425
4220,86.802
4221,98.677
4222,98.677
4223,98.677
4224,98.677
4225,98.677
4226,98.677
4227,98.677
4228,98.677
4229,98.677
4230,94.225
4231,155.298
4232,244.985
4233,322.689
4234,373.296
4235,414.447
4236,396.734
4237,435.414
4238,451.462
4239,459.266
4240,463.06
4241,191.755
4242,56.57
4243,27.425
4244,86.802
4245,98.677
4246,98.677
4247,98.677
4248,98.677
4249,98.677
4250,98.677
4251,98.677
4252,98.677
4253,98.677
4254,94.225
4255,159.382
4256,246.258
4257,354.59
4258,391.291
4259,411.108
4260,398.657
4261,443.102
4262,444.647
4263,459.331
4264,464.673
4265,224.012
4266,137.009
4267,142.05
4268,143.031
4269,131.871
4270,123.154
4271,98.677
4272,98.677
4273,98.677
4274,98.677
4275,98.677
4276,98.677
4277,98.677
4278,94.225
4279,161.226
4280,255.351
4281,363.73
4282,401.771
4283,424.893
4284,405.908
4285,450.277
4286,465.19
4287,469.556
4288,467.149
4289,222.285
4290,106.968
4291,62.131
4292,86.802
4293,98.677
4294,98.677
4295,98.677
4296,98.677
4297,98.677
4298,98.677
4299,98.677
4300,98.677
4301,98.677
4302,94.225
4303,157.371
4304,245.674
4305,325.688
4306,367.874
4307,399.67
4308,391.83
4309,373.439
4310,311.383
4311,301.847
4312,340.161
4313,88.853
4314,27.425
4315,27.425
4316,86.802
4317,98.677
4318,98.677
4319,98.677
4320,98.677
4321,98.677
4322,98.677
4323,98.677
4324,98.677
4325,98.677
4326,94.225
4327,152.967
4328,244.875
4329,328.847
4330,354.187
4331,344.819
4332,312.67
4333,363.459
4334,354.004
4335,364.414
4336,345.965
4337,88.853
4338,27.425
4339,27.425
4340,86.802
4341,98.677
4342,98.677
4343,98.677
4344,98.677
4345,98.677
4346,98.677
4347,98.677
4348,98.677
4349,98.677
4350,63.051
4351,58.599
4352,78.185
4353,116.919
4354,118.684
4355,122.88
4356,101.588
4357,146.452
4358,171.508
4359,178.952
4360,119.278
4361,100.654
4362,110.193
4363,66.346
4364,104.376
4365,98.677
4366,98.677
4367,98.677
4368,98.677
4369,98.677
4370,98.677
4371,98.677
4372,98.677
4373,98.677
4374,63.051
4375,27.425
4376,27.425
4377,27.425
4378,83.603
4379,100.686
4380,98.377
4381,107.971
4382,116.09
4383,138.622
4384,129.462
4385,144.509
4386,112.982
4387,91.14
4388,107.896
4389,98.677
4390,98.677
4391,98.677
4392,98.677
4393,98.677
4394,98.677
4395,98.677
4396,98.677
4397,98.677
4398,94.225
4399,164.112
4400,278.8
4401,376.317
4402,399.583
4403,414.633
4404,393.826
4405,429.564
4406,443.395
4407,458.837
4408,460.918
4409,221.331
4410,118.295
4411,101.33
4412,120.853
4413,117.061
4414,98.677
4415,98.677
4416,98.677
4417,98.677
4418,98.677
4419,98.677
4420,98.677
4421,98.677
4422,63.051
4423,27.425
4424,27.425
4425,67.263
4426,118.516
4427,114.897
4428,156.313
4429,128.657
4430,166.818
4431,139.193
4432,165.337
4433,131.812
4434,148.664
4435,96.009
4436,141.519
4437,123.95
4438,106.286
4439,98.677
4440,98.677
4441,98.677
4442,98.677
4443,98.677
4444,98.677
4445,98.677
4446,94.225
4447,163.256
4448,278.411
4449,396.332
4450,418.477
4451,436.997
4452,389.913
4453,366.266
4454,369.382
4455,327.1
4456,297.64
4457,88.853
4458,27.425
4459,27.425
4460,86.802
4461,98.677
4462,98.677
4463,98.677
4464,98.677
4465,98.677
4466,98.677
4467,98.677
4468,98.677
4469,98.677
4470,94.225
4471,156.259
4472,244.822
4473,340.863
4474,378.915
4475,398.666
4476,318.464
4477,301.159
4478,295.333
4479,314.917
4480,337.714
4481,88.853
4482,27.425
4483,27.425
4484,86.802
4485,98.677
4486,98.677
4487,98.677
4488,98.677
4489,98.677
4490,98.677
4491,98.677
4492,98.677
4493,98.677
4494,94.225
4495,155.126
4496,243.196
4497,326.082
4498,363.977
4499,391.447
4500,371.435
4501,332.332
4502,291.689
4503,293.796
4504,337.762
4505,112.586
4506,52.701
4507,47.489
4508,86.802
4509,98.677
4510,98.677
4511,98.677
4512,98.677
4513,98.677
4514,98.677
4515,98.677
4516,98.677
4517,98.677
4518,63.051
4519,58.599
4520,71.905
4521,124.401
4522,171.24
4523,202.672
4524,168.501
4525,176.54
4526,198.279
4527,216.996
4528,116.141
4529,67.348
4530,27.425
4531,27.425
4532,86.802
4533,98.677
4534,98.677
4535,98.677
4536,98.677
4537,98.677
4538,98.677
4539,98.677
4540,98.677
4541,98.677
4542,63.051
4543,27.425
4544,27.425
4545,27.425
4546,27.425
4547,27.425
4548,27.425
4549,27.425
4550,47.473
4551,74.708
4552,108.144
4553,136.923
4554,123.07
4555,74.094
4556,86.802
4557,98.677
4558,98.677
4559,98.677
4560,98.677
4561,98.677
4562,98.677
4563,98.677
4564,98.677
4565,98.677
4566,106.1
4567,158.411
4568,260.83
4569,365.756
4570,393.982
4571,409.231
4572,391.982
4573,446.414
4574,465.334
4575,463.746
4576,462.064
4577,200.781
4578,37.248
4579,27.425
4580,86.802
4581,98.677
4582,98.677
4583,98.677
4584,98.677
4585,98.677
4586,98.677
4587,98.677
4588,98.677
4589,98.677
4590,106.1
4591,159.773
4592,273.45
4593,376.452
4594,404.993
4595,434.254
4596,421.989
4597,457.694
4598,434.712
4599,368.678
4600,319.572
4601,115.812
4602,94.015
4603,96.029
4604,118.609
4605,98.677
4606,98.677
4607,98.677
4608,98.677
4609,98.677
4610,98.677
4611,98.677
4612,98.677
4613,98.677
4614,106.1
4615,165.295
4616,277.635
4617,376.164
4618,415.239
4619,435.5
4620,417.155
4621,455.588
4622,464.461
4623,464.909
4624,461.975
4625,222.493
4626,132.898
4627,128.397
4628,132.759
4629,126.17
4630,120.079
4631,98.677
4632,98.677
4633,98.677
4634,98.677
4635,98.677
4636,98.677
4637,98.677
4638,106.1
4639,193.705
4640,318.387
4641,396.497
4642,412.622
4643,430.426
4644,420.874
4645,453.378
4646,455.31
4647,462.321
4648,462.365
4649,221.845
4650,130.36
4651,124.614
4652,130.605
4653,123.251
4654,115.859
4655,98.677
4656,119.77
4657,98.677
4658,98.677
4659,98.677
4660,98.677
4661,98.677
4662,110.31
4663,205.691
4664,324.651
4665,397.504
4666,416.452
4667,420.842
4668,398.697
4669,435.847
4670,447.888
4671,451.244
4672,448.039
4673,199.074
4674,109.794
4675,109.785
4676,128.72
4677,124.43
4678,122.009
4679,98.677
4680,98.677
4681,98.677
4682,98.677
4683,98.677
4684,98.677
4685,98.677
4686,74.927
4687,58.599
4688,103.681
4689,171.137
4690,195.312
4691,218.22
4692,129.294
4693,108.736
4694,156.934
4695,174.857
4696,115.511
4697,96.46
4698,101.873
4699,65.329
4700,106.865
4701,98.677
4702,98.677
4703,98.677
4704,98.677
4705,98.677
4706,98.677
4707,98.677
4708,98.677
4709,98.677
4710,74.927
4711,27.425
4712,27.425
4713,27.425
4714,27.425
4715,27.425
4716,27.425
4717,27.425
4718,27.425
4719,27.425
4720,56.049
4721,43.619
4722,27.425
4723,27.425
4724,86.802
4725,98.677
4726,98.677
4727,98.677
4728,98.677
4729,98.677
4730,98.677
4731,98.677
4732,98.677
4733,98.677
4734,106.1
4735,164.329
4736,259.787
4737,361.425
4738,371.788
4739,384.403
4740,361.964
4741,411.871
4742,424.151
4743,421.595
4744,408.997
4745,162.745
4746,76.944
4747,60.68
4748,112.094
4749,115.836
4750,98.677
4751,98.677
4752,98.677
4753,98.677
4754,98.677
4755,98.677
4756,98.677
4757,98.677
4758,106.1
4759,167.92
4760,288.727
4761,366.621
4762,385.818
4763,415.614
4764,387.669
4765,423.393
4766,426.815
4767,427.26
4768,432.866
4769,189.553
4770,98.196
4771,95.982
4772,115.369
4773,98.677
4774,98.677
4775,98.677
4776,98.677
4777,98.677
4778,98.677
4779,98.677
4780,98.677
4781,98.677
4782,106.1
4783,172.006
4784,305.626
4785,380.937
4786,393.16
4787,404.945
4788,385.23
4789,423.993
4790,425.998
4791,434.322
4792,439.574
4793,196.919
4794,110.829
4795,111.957
4796,132.142
4797,112.892
4798,101.872
4799,98.677
4800,98.677
4801,98.677
4802,98.677
4803,98.677
4804,98.677
4805,98.677
4806,106.1
4807,168.666
4808,295.915
4809,368.596
4810,384.118
4811,408.632
4812,388.882
4813,433.904
4814,435.786
4815,437.036
4816,436.274
4817,197.765
4818,106.445
4819,98.561
4820,124.339
4821,98.677
4822,98.677
4823,98.677
4824,98.677
4825,98.677
4826,98.677
4827,98.677
4828,98.677
4829,98.677
4830,106.1
4831,165.015
4832,264.729
4833,348.786
4834,380.559
4835,412.65
4836,393.457
4837,422.312
4838,430.926
4839,436.789
4840,436.696
4841,194.953
4842,99.135
4843,90.967
4844,119.233
4845,101.544
4846,98.677
4847,98.677
4848,98.677
4849,98.677
4850,98.677
4851,98.677
4852,98.677
4853,98.677
4854,74.927
4855,58.599
4856,82.28
4857,184.651
4858,218.414
4859,228.644
4860,191.01
4861,197.16
4862,196.405
4863,205.007
4864,141.222
4865,111.565
4866,111.185
4867,68.568
4868,123.123
4869,116.437
4870,98.677
4871,98.677
4872,98.677
4873,98.677
4874,98.677
4875,98.677
4876,98.677
4877,98.677
4878,74.927
4879,27.425
4880,27.425
4881,55.958
4882,90.379
4883,137.148
4884,117.476
4885,129.657
4886,49.548
4887,27.425
4888,44.778
4889,65.179
4890,49.591
4891,27.425
4892,98.677
4893,98.677
4894,98.677
4895,98.677
4896,98.677
4897,98.677
4898,98.677
4899,98.677
4900,98.677
4901,98.677
4902,106.1
4903,157.988
4904,246.553
4905,338.448
4906,371.95
4907,394.908
4908,382.75
4909,430.071
4910,453.678
4911,372.764
4912,294.557
4913,88.853
4914,27.425
4915,27.425
4916,98.677
4917,98.677
4918,98.677
4919,98.677
4920,98.677
4921,98.677
4922,98.677
4923,98.677
4924,98.677
4925,98.677
4926,106.1
4927,158.033
4928,245.851
4929,339.932
4930,381.348
4931,405.633
4932,332.386
4933,337.943
4934,392.912
4935,362.477
4936,292.496
4937,88.853
4938,27.425
4939,27.425
4940,98.677
4941,98.677
4942,98.677
4943,98.677
4944,98.677
4945,98.677
4946,98.677
4947,98.677
4948,98.677
4949,98.677
4950,106.1
4951,157.794
4952,247.155
4953,347.604
4954,383.114
4955,407.18
4956,388.499
4957,431.417
4958,443.552
4959,450.952
4960,440.643
4961,182.457
4962,93.222
4963,82.222
4964,110.353
4965,98.677
4966,98.677
4967,98.677
4968,98.677
4969,98.677
4970,98.677
4971,98.677
4972,98.677
4973,98.677
4974,106.1
4975,163.612
4976,276.981
4977,371.296
4978,395.696
4979,408.036
4980,389.579
4981,435.502
4982,442.82
4983,448.835
4984,451.518
4985,206.585
4986,108.196
4987,103.972
4988,136.44
4989,111.157
4990,101.132
4991,98.677
4992,98.677
4993,98.677
4994,98.677
4995,98.677
4996,98.677
4997,98.677
4998,106.1
4999,165.743
5000,255.293
5001,375.253
5002,391.69
5003,404.899
5004,393.055
5005,433.412
5006,438.358
5007,443.675
5008,419.64
5009,185.776
5010,111.038
5011,105.17
5012,129.094
5013,108.809
5014,104.01
5015,98.677
5016,98.677
5017,98.677
5018,98.677
5019,98.677
5020,98.677
5021,98.677
5022,74.927
5023,58.599
5024,95.512
5025,177.793
5026,188.566
5027,203.504
5028,166.816
5029,177.214
5030,189.228
5031,204.215
5032,131.689
5033,112.806
5034,125.13
5035,77.723
5036,125.196
5037,98.677
5038,98.677
5039,98.677
5040,98.677
5041,98.677
5042,98.677
5043,98.677
5044,98.677
5045,98.677
5046,74.927
5047,27.425
5048,27.425
5049,27.425
5050,74.281
5051,93.438
5052,94.507
5053,112.97
5054,117.568
5055,132.756
5056,124.198
5057,140.202
5058,109.054
5059,82.968
5060,121.622
5061,111.712
5062,101.424
5063,98.677
5064,98.677
5065,98.677
5066,98.677
5067,98.677
5068,98.677
5069,98.677
5070,117.976
5071,165.607
5072,288.338
5073,374.464
5074,397.775
5075,420.657
5076,395.94
5077,436.984
5078,451.591
5079,450.877
5080,449.501
5081,203.727
5082,116.875
5083,113.368
5084,130.399
5085,98.677
5086,98.677
5087,98.677
5088,98.677
5089,98.677
5090,98.677
5091,98.677
5092,98.677
5093,98.677
5094,117.976
5095,164.38
5096,263.208
5097,348.261
5098,375.992
5099,411.78
5100,324.531
5101,295.07
5102,299.187
5103,341.14
5104,385.128
5105,162.153
5106,78.573
5107,47.097
5108,98.677
5109,98.677
5110,98.677
5111,98.677
5112,98.677
5113,98.677
5114,98.677
5115,98.677
5116,98.677
5117,98.677
5118,117.976
5119,158.012
5120,246.182
5121,348.341
5122,375.787
5123,401.326
5124,381.045
5125,340.651
5126,290.776
5127,289.315
5128,289.063
5129,88.853
5130,27.425
5131,27.425
5132,98.677
5133,98.677
5134,98.677
5135,98.677
5136,98.677
5137,98.677
5138,98.677
5139,98.677
5140,98.677
5141,98.677
5142,117.976
5143,152.129
5144,241.421
5145,314.564
5146,369.121
5147,391.838
5148,375.117
5149,418.463
5150,430.37
5151,437.475
5152,440.931
5153,195.958
5154,106.97
5155,112.121
5156,140
5157,126.358
5158,136.442
5159,105.286
5160,98.677
5161,98.677
5162,98.677
5163,98.677
5164,98.677
5165,98.677
5166,117.976
5167,164.734
5168,247.829
5169,299.237
5170,323.649
5171,379.877
5172,369.772
5173,415.756
5174,422.596
5175,430.64
5176,434.454
5177,195.033
5178,109.628
5179,118.914
5180,144.096
5181,127.336
5182,121.619
5183,98.677
5184,98.677
5185,98.677
5186,98.677
5187,98.677
5188,98.677
5189,98.677
5190,86.802
5191,58.599
5192,76.903
5193,124.994
5194,171.971
5195,212.776
5196,179.466
5197,191.105
5198,207.341
5199,184.858
5200,80.859
5201,68.208
5202,79.377
5203,71.008
5204,130.651
5205,121.456
5206,119.256
5207,98.677
5208,98.677
5209,98.677
5210,98.677
5211,98.677
5212,98.677
5213,98.677
5214,86.802
5215,27.425
5216,27.425
5217,27.425
5218,57.941
5219,84.296
5220,94.768
5221,88.474
5222,98.039
5223,95.736
5224,99.54
5225,87.299
5226,86.114
5227,57.862
5228,122.036
5229,98.677
5230,98.677
5231,98.677
5232,98.677
5233,98.677
5234,98.677
5235,98.677
5236,98.677
5237,98.677
5238,117.976
5239,164.207
5240,253.67
5241,369.805
5242,403.703
5243,400.841
5244,374.709
5245,420.129
5246,440.528
5247,449.716
5248,445.31
5249,191.159
5250,96.639
5251,93.661
5252,129.151
5253,116.399
5254,98.677
5255,98.677
5256,98.677
5257,98.677
5258,98.677
5259,98.677
5260,98.677
5261,98.677
5262,117.976
5263,170.033
5264,281.56
5265,351.005
5266,363.587
5267,389.872
5268,390.207
5269,435.297
5270,447.629
5271,452.357
5272,442.066
5273,196.767
5274,112.994
5275,125.405
5276,137.844
5277,123.896
5278,120.072
5279,118.607
5280,117.434
5281,116.084
5282,98.677
5283,98.677
5284,98.677
5285,98.677
5286,117.976
5287,168.951
5288,289.998
5289,370.337
5290,391.207
5291,413.738
5292,402.845
5293,435.771
5294,440.375
5295,448.866
5296,450.016
5297,205.053
5298,111.951
5299,122.392
5300,143.229
5301,131.363
5302,142.694
5303,123.729
5304,106.464
5305,98.677
5306,98.677
5307,98.677
5308,98.677
5309,98.677
5310,119.328
5311,187.301
5312,303.371
5313,383.203
5314,400.573
5315,420.879
5316,405.842
5317,447.396
5318,458.573
5319,458.76
5320,458.07
5321,209.396
5322,115.984
5323,134.069
5324,148.04
5325,133.047
5326,139.732
5327,123.783
5328,120.343
5329,106.059
5330,112.663
5331,101.884
5332,98.677
5333,98.677
5334,147.691
5335,212.66
5336,307.062
5337,375.606
5338,398.673
5339,417.739
5340,397.347
5341,440.696
5342,446.07
5343,419.727
5344,335.759
5345,88.853
5346,27.425
5347,39.3
5348,98.677
5349,98.677
5350,98.677
5351,98.677
5352,98.677
5353,98.677
5354,98.677
5355,98.677
5356,98.677
5357,98.677
5358,86.802
5359,58.599
5360,86.143
5361,169.752
5362,195.027
5363,222.27
5364,189.554
5365,195.522
5366,203.367
5367,220.126
5368,151.051
5369,112.351
5370,99.33
5371,70.929
5372,98.677
5373,98.677
5374,98.677
5375,98.677
5376,98.677
5377,98.677
5378,98.677
5379,98.677
5380,98.677
5381,98.677
5382,86.802
5383,27.425
5384,27.425
5385,27.425
5386,74.024
5387,125.126
5388,109.664
5389,145.351
5390,126.954
5391,161.86
5392,134.215
5393,161.688
5394,120.851
5395,133.707
5396,145.451
5397,131.434
5398,142.914
5399,132.098
5400,129.676
5401,123.962
5402,122.875
5403,113.324
5404,101.902
5405,98.677
5406,136.303
5407,202.025
5408,302.567
5409,391.196
5410,413.388
5411,434.852
5412,419.91
5413,457.691
5414,461.188
5415,462.673
5416,461.916
5417,220.869
5418,133.282
5419,145.005
5420,150.029
5421,148.107
5422,137.978
5423,134.438
5424,126.076
5425,124.572
5426,122.33
5427,121.766
5428,98.677
5429,98.677
5430,147.801
5431,214.814
5432,319.284
5433,391.011
5434,409.674
5435,432.724
5436,420.556
5437,447.387
5438,454.951
5439,458.718
5440,455.819
5441,208.936
5442,119.951
5443,138.882
5444,152.89
5445,160.592
5446,139.43
5447,126.58
5448,125.128
5449,121.825
5450,117.172
5451,98.677
5452,98.677
5453,98.677
5454,135.864
5455,203.817
5456,316.891
5457,390.061
5458,412.863
5459,437.7
5460,420.361
5461,457.962
5462,460.487
5463,461.814
5464,462.078
5465,221.155
5466,121.871
5467,130.347
5468,151.544
5469,150.972
5470,137.67
5471,133.789
5472,124.984
5473,123.485
5474,122.285
5475,122.791
5476,120.749
5477,98.677
5478,147.478
5479,211.076
5480,317.371
5481,392.816
5482,418.73
5483,443.892
5484,426.234
5485,460.166
5486,461.734
5487,461.453
5488,460.762
5489,220.866
5490,134.253
5491,143.305
5492,153.262
5493,160.299
5494,137.508
5495,132.63
5496,149.481
5497,139.115
5498,132.429
5499,123.197
5500,121.961
5501,98.677
5502,145.323
5503,202.978
5504,308.825
5505,392.767
5506,414.196
5507,433.92
5508,427.738
5509,464.75
5510,468.038
5511,468.81
5512,444.336
5513,157.214
5514,96.152
5515,129.347
5516,150.227
5517,156.047
5518,136.127
5519,119.716
5520,98.677
5521,98.677
5522,98.677
5523,98.677
5524,98.677
5525,98.677
5526,86.802
5527,58.599
5528,99.551
5529,185.676
5530,213.971
5531,246.163
5532,210.67
5533,158.905
5534,104.225
5535,139.654
5536,121.323
5537,77.83
5538,27.425
5539,39.3
5540,98.677
5541,98.677
5542,98.677
5543,98.677
5544,98.677
5545,98.677
5546,98.677
5547,98.677
5548,98.677
5549,98.677
5550,86.802
5551,27.425
5552,27.425
5553,27.425
5554,86.582
5555,108.581
5556,121.967
5557,147.675
5558,133.407
5559,121.071
5560,83.885
5561,105.123
5562,84.879
5563,98.379
5564,126.86
5565,122.242
5566,122.823
5567,118.579
5568,98.677
5569,98.677
5570,98.677
5571,98.677
5572,98.677
5573,98.677
5574,129.851
5575,162.397
5576,251.647
5577,349.08
5578,392.661
5579,425.563
5580,404.123
5581,463.003
5582,477.808
5583,479.746
5584,478.812
5585,231.465
5586,139.893
5587,177.659
5588,159.982
5589,152.642
5590,141.138
5591,132.565
5592,98.677
5593,98.677
5594,98.677
5595,98.677
5596,98.677
5597,98.677
5598,129.851
5599,176.378
5600,270.976
5601,303.998
5602,296.13
5603,296.536
5604,277.72
5605,347.178
5606,373.46
5607,378.215
5608,387.666
5609,168.739
5610,94.97
5611,116.286
5612,120.939
5613,102.053
5614,98.677
5615,98.677
5616,98.677
5617,98.677
5618,98.677
5619,98.677
5620,98.677
5621,98.677
5622,129.851
5623,164.628
5624,247.449
5625,335.619
5626,339.268
5627,311.416
5628,284.916
5629,342.523
5630,411.969
5631,362.17
5632,298.5
5633,88.853
5634,27.425
5635,51.176
5636,98.677
5637,98.677
5638,98.677
5639,98.677
5640,98.677
5641,98.677
5642,98.677
5643,98.677
5644,98.677
5645,98.677
5646,129.851
5647,155.246
5648,239.144
5649,289.661
5650,290.705
5651,292.139
5652,265.734
5653,307.096
5654,345.263
5655,373.702
5656,377.852
5657,138.512
5658,66.366
5659,66.998
5660,98.677
5661,98.677
5662,98.677
5663,98.677
5664,98.677
5665,98.677
5666,98.677
5667,98.677
5668,98.677
5669,98.677
5670,129.851
5671,153.537
5672,240.528
5673,295.878
5674,343.79
5675,380.072
5676,381.475
5677,423.226
5678,432.335
5679,438.164
5680,439.043
5681,190.915
5682,98.848
5683,125.042
5684,134.504
5685,119.863
5686,118.281
5687,116.113
5688,98.677
5689,98.677
5690,98.677
5691,98.677
5692,98.677
5693,98.677
5694,98.677
5695,58.599
5696,82.43
5697,145.68
5698,177.055
5699,216.592
5700,175.315
5701,189.9
5702,196.346
5703,209.738
5704,148.931
5705,126.475
5706,135.319
5707,109.489
5708,144.383
5709,122.644
5710,107.333
5711,98.677
5712,98.677
5713,98.677
5714,98.677
5715,98.677
5716,98.677
5717,98.677
5718,98.677
5719,27.425
5720,27.425
5721,27.425
5722,90.133
5723,130.569
5724,128.333
5725,159.671
5726,137.575
5727,164.633
5728,130.462
5729,128.16
5730,101.651
5731,103.918
5732,120.239
5733,114.641
5734,98.677
5735,98.677
5736,98.677
5737,98.677
5738,98.677
5739,98.677
5740,98.677
5741,98.677
5742,129.851
5743,162.692
5744,258.525
5745,364.551
5746,393.935
5747,414.841
5748,404.675
5749,437.677
5750,450.457
5751,460.59
5752,452.64
5753,201.743
5754,106.992
5755,127.516
5756,134.67
5757,121.015
5758,118.773
5759,117.21
5760,116.74
5761,98.677
5762,98.677
5763,98.677
5764,98.677
5765,98.677
5766,129.851
5767,187.74
5768,300.196
5769,382.885
5770,416.086
5771,430.895
5772,415.469
5773,449.558
5774,458.759
5775,462.321
5776,461.327
5777,216.818
5778,112.945
5779,135.582
5780,142.793
5781,129.29
5782,124.7
5783,117.833
5784,98.677
5785,98.677
5786,98.677
5787,98.677
5788,98.677
5789,98.677
5790,129.851
5791,169.245
5792,294.116
5793,381.511
5794,409.266
5795,439.017
5796,429.004
5797,452.438
5798,451.074
5799,454.976
5800,381.349
5801,113.354
5802,74.128
5803,77.831
5804,98.677
5805,98.677
5806,98.677
5807,98.677
5808,98.677
5809,98.677
5810,98.677
5811,98.677
5812,98.677
5813,98.677
5814,129.851
5815,161.474
5816,248.226
5817,311.688
5818,359.468
5819,415.2
5820,403.576
5821,435.331
5822,449.048
5823,453.738
5824,448.05
5825,194.729
5826,102.874
5827,142.576
5828,138.237
5829,124.736
5830,120.733
5831,115.822
5832,98.677
5833,98.677
5834,98.677
5835,98.677
5836,98.677
5837,98.677
5838,129.851
5839,165.626
5840,261.946
5841,360.267
5842,383.846
5843,402.914
5844,408.867
5845,415.655
5846,396.28
5847,452.207
5848,438.379
5849,163.127
5850,71.97
5851,91.357
5852,115.658
5853,98.677
5854,98.677
5855,98.677
5856,98.677
5857,98.677
5858,98.677
5859,98.677
5860,98.677
5861,98.677
5862,98.677
5863,58.599
5864,90.752
5865,167.104
5866,131.243
5867,116.485
5868,69.398
5869,94.509
5870,139.245
5871,97.445
5872,27.425
5873,42.056
5874,38.995
5875,63.051
5876,98.677
5877,98.677
5878,98.677
5879,98.677
5880,98.677
5881,98.677
5882,98.677
5883,98.677
5884,98.677
5885,98.677
5886,98.677
5887,27.425
5888,27.425
5889,27.425
5890,67.212
5891,112.899
5892,101.684
5893,132.899
5894,111.601
5895,145.353
5896,116.282
5897,134.414
5898,90.148
5899,109.597
5900,105.844
5901,98.677
5902,98.677
5903,98.677
5904,98.677
5905,98.677
5906,98.677
5907,98.677
5908,98.677
5909,98.677
5910,98.677
5911,27.425
5912,27.425
5913,45.402
5914,85.148
5915,93.614
5916,114.689
5917,117.309
5918,139.538
5919,125.55
5920,136.15
5921,94.862
5922,84.255
5923,91.236
5924,115.072
5925,98.677
5926,98.677
5927,98.677
5928,98.677
5929,98.677
5930,98.677
5931,98.677
5932,98.677
5933,98.677
5934,129.851
5935,162.655
5936,259.261
5937,356.094
5938,383.775
5939,409.909
5940,397.488
5941,410.511
5942,387.747
5943,339.203
5944,321.66
5945,120.288
5946,58.4
5947,79.439
5948,98.677
5949,98.677
5950,98.677
5951,98.677
5952,98.677
5953,98.677
5954,98.677
5955,98.677
5956,98.677
5957,98.677
5958,129.851
5959,156.315
5960,244.833
5961,323.609
5962,384.235
5963,414.073
5964,402.697
5965,447.637
5966,394.639
5967,313.409
5968,312.687
5969,119.21
5970,49.456
5971,63.051
5972,98.677
5973,98.677
5974,98.677
5975,98.677
5976,98.677
5977,98.677
5978,98.677
5979,98.677
5980,98.677
5981,98.677
5982,129.851
5983,155.131
5984,242.532
5985,310.402
5986,367.878
5987,403.157
5988,391.821
5989,441.603
5990,455.845
5991,390.098
5992,313.037
5993,88.853
5994,27.425
5995,63.051
5996,98.677
5997,98.677
5998,98.677
5999,98.677
6000,98.677
6001,98.677
6002,98.677
6003,98.677
6004,98.677
6005,98.677
6006,129.851
6007,149.937
6008,242.736
6009,309.361
6010,359.067
6011,392.481
6012,387.084
6013,424.412
6014,433.551
6015,423.099
6016,410.128
6017,158.615
6018,67.577
6019,89.173
6020,98.677
6021,98.677
6022,98.677
6023,98.677
6024,98.677
6025,98.677
6026,98.677
6027,98.677
6028,98.677
6029,98.677
6030,98.677
6031,58.599
6032,76.643
6033,132.171
6034,187.098
6035,222.409
6036,182.842
6037,192.648
6038,207.319
6039,205.276
6040,135.39
6041,110.586
6042,111.849
6043,113.007
6044,117.168
6045,98.677
6046,98.677
6047,98.677
6048,98.677
6049,98.677
6050,98.677
6051,98.677
6052,98.677
6053,98.677
6054,98.677
6055,27.425
6056,27.425
6057,27.425
6058,58.188
6059,92.849
6060,128.314
6061,106.418
6062,145.438
6063,116.824
6064,141.271
6065,104.002
6066,99.137
6067,111.128
6068,116.131
6069,98.677
6070,98.677
6071,98.677
6072,98.677
6073,98.677
6074,98.677
6075,98.677
6076,98.677
6077,98.677
6078,129.851
6079,155.895
6080,244.126
6081,308.115
6082,370.137
6083,404.826
6084,389.785
6085,427.277
6086,438.352
6087,456.74
6088,455.807
6089,187.519
6090,82.169
6091,102.679
6092,117.022
6093,98.677
6094,98.677
6095,98.677
6096,98.677
6097,98.677
6098,98.677
6099,98.677
6100,98.677
6101,98.677
6102,129.851
6103,161.713
6104,247.896
6105,330.326
6106,378.467
6107,400.597
6108,386.746
6109,430.183
6110,437.777
6111,387.175
6112,368.172
6113,162.678
6114,67.732
6115,74.927
6116,98.677
6117,98.677
6118,98.677
6119,98.677
6120,98.677
6121,98.677
6122,98.677
6123,98.677
6124,98.677
6125,98.677
6126,129.851
6127,165.498
6128,249.089
6129,327.909
6130,395.627
6131,413.686
6132,389.411
6133,425.006
6134,445.352
6135,455.112
6136,437.767
6137,177.164
6138,84.716
6139,105.294
6140,115.914
6141,98.677
6142,98.677
6143,98.677
6144,98.677
6145,98.677
6146,98.677
6147,98.677
6148,98.677
6149,98.677
6150,129.851
6151,157.081
6152,244.564
6153,323.038
6154,366.196
6155,387.059
6156,383.093
6157,413.255
6158,398.294
6159,337.283
6160,292.011
6161,88.853
6162,27.425
6163,74.927
6164,98.677
6165,98.677
6166,98.677
6167,98.677
6168,98.677
6169,98.677
6170,98.677
6171,98.677
6172,98.677
6173,98.677
6174,129.851
6175,162.193
6176,236.893
6177,287.446
6178,292.759
6179,323.809
6180,347.348
6181,390.041
6182,388.089
6183,395.465
6184,392.482
6185,146.076
6186,58.008
6187,74.927
6188,98.677
6189,98.677
6190,98.677
6191,98.677
6192,98.677
6193,98.677
6194,98.677
6195,98.677
6196,98.677
6197,98.677
6198,98.677
6199,70.474
6200,73.23
6201,118.95
6202,122.334
6203,162.924
6204,148.542
6205,160.644
6206,168.109
6207,167.265
6208,99.121
6209,78.644
6210,57.363
6211,74.927
6212,98.677
6213,98.677
6214,98.677
6215,98.677
6216,98.677
6217,98.677
6218,98.677
6219,98.677
6220,98.677
6221,98.677
6222,98.677
6223,39.3
6224,27.425
6225,27.425
6226,54.215
6227,83.955
6228,119.314
6229,99.066
6230,138.943
6231,96.259
6232,75.459
6233,56.09
6234,28.632
6235,74.927
6236,98.677
6237,98.677
6238,98.677
6239,98.677
6240,98.677
6241,98.677
6242,98.677
6243,98.677
6244,98.677
6245,98.677
6246,129.851
6247,169.339
6248,245.078
6249,325.804
6250,377.571
6251,396.565
6252,387.413
6253,380.093
6254,346.944
6255,339.022
6256,336.591
6257,88.853
6258,27.425
6259,86.802
6260,98.677
6261,98.677
6262,98.677
6263,98.677
6264,98.677
6265,98.677
6266,98.677
6267,98.677
6268,98.677
6269,98.677
6270,129.851
6271,171.54
6272,243.672
6273,295.693
6274,313.569
6275,304.754
6276,261.489
6277,289.956
6278,290.622
6279,289.428
6280,290.962
6281,88.853
6282,27.425
6283,86.802
6284,98.677
6285,98.677
6286,98.677
6287,98.677
6288,98.677
6289,98.677
6290,98.677
6291,98.677
6292,98.677
6293,98.677
6294,129.851
6295,164.075
6296,241.677
6297,296.091
6298,306.214
6299,331.416
6300,314.497
6301,310.737
6302,291.962
6303,291.649
6304,294.032
6305,88.853
6306,27.425
6307,86.802
6308,98.677
6309,98.677
6310,98.677
6311,98.677
6312,98.677
6313,98.677
6314,98.677
6315,98.677
6316,98.677
6317,98.677
6318,129.851
6319,174.257
6320,247.07
6321,291.782
6322,284.893
6323,284.388
6324,256.65
6325,284.771
6326,286.156
6327,287.063
6328,287.869
6329,88.853
6330,27.425
6331,86.802
6332,98.677
6333,98.677
6334,98.677
6335,98.677
6336,98.677
6337,98.677
6338,98.677
6339,98.677
6340,98.677
6341,98.677
6342,129.851
6343,173.998
6344,246.891
6345,305.121
6346,348.543
6347,378.153
6348,357.566
6349,390.308
6350,407.037
6351,412.102
6352,406.183
6353,153.897
6354,60.224
6355,86.802
6356,98.677
6357,98.677
6358,98.677
6359,98.677
6360,98.677
6361,98.677
6362,98.677
6363,98.677
6364,98.677
6365,98.677
6366,98.677
6367,70.474
6368,71.418
6369,121.701
6370,153.503
6371,194.34
6372,163.775
6373,136.66
6374,76.756
6375,68.304
6376,27.425
6377,27.425
6378,27.425
6379,86.802
6380,98.677
6381,98.677
6382,98.677
6383,98.677
6384,98.677
6385,98.677
6386,98.677
6387,98.677
6388,98.677
6389,98.677
6390,98.677
6391,39.3
6392,27.425
6393,27.425
6394,27.425
6395,27.425
6396,57.95
6397,63.852
6398,96.283
6399,80.611
6400,89.776
6401,62.75
6402,27.425
6403,86.802
6404,98.677
6405,98.677
6406,98.677
6407,98.677
6408,98.677
6409,98.677
6410,98.677
6411,98.677
6412,98.677
6413,98.677
6414,129.851
6415,163.602
6416,241.188
6417,298.018
6418,350.513
6419,381.053
6420,361.631
6421,405.381
6422,417.179
6423,421.762
6424,407.354
6425,155.85
6426,62.556
6427,100.958
6428,98.677
6429,98.677
6430,98.677
6431,98.677
6432,98.677
6433,98.677
6434,98.677
6435,98.677
6436,98.677
6437,98.677
6438,129.851
6439,162.355
6440,239.948
6441,296.568
6442,348.349
6443,402.569
6444,408.086
6445,453.278
6446,398.728
6447,366.364
6448,428.324
6449,171.132
6450,60.78
6451,86.802
6452,98.677
6453,98.677
6454,98.677
6455,98.677
6456,98.677
6457,98.677
6458,98.677
6459,98.677
6460,98.677
6461,98.677
6462,129.851
6463,163.232
6464,241.285
6465,298.387
6466,353.246
6467,398.553
6468,382.993
6469,426.31
6470,442.834
6471,447.794
6472,446.227
6473,189.089
6474,84.476
6475,124.444
6476,98.677
6477,98.677
6478,98.677
6479,98.677
6480,98.677
6481,98.677
6482,98.677
6483,98.677
6484,98.677
6485,98.677
6486,129.851
6487,165.632
6488,242.488
6489,300.678
6490,346.333
6491,324.369
6492,266.12
6493,292.398
6494,290.958
6495,291.06
6496,294.455
6497,88.853
6498,27.425
6499,98.677
6500,98.677
6501,98.677
6502,98.677
6503,98.677
6504,98.677
6505,98.677
6506,98.677
6507,98.677
6508,98.677
6509,98.677
6510,129.851
6511,159.37
6512,236.278
6513,291.713
6514,297.075
6515,297.896
6516,267.91
6517,296.458
6518,296.128
6519,294.572
6520,294.736
6521,88.853
6522,27.425
6523,98.677
6524,98.677
6525,98.677
6526,98.677
6527,98.677
6528,98.677
6529,98.677
6530,98.677
6531,98.677
6532,98.677
6533,98.677
6534,98.677
6535,70.474
6536,72.971
6537,123.591
6538,159.476
6539,188.118
6540,150.205
6541,145.297
6542,137.003
6543,138.533
6544,53.366
6545,46.145
6546,27.425
6547,98.677
6548,98.677
6549,98.677
6550,98.677
6551,98.677
6552,98.677
6553,98.677
6554,98.677
6555,98.677
6556,98.677
6557,98.677
6558,98.677
6559,39.3
6560,27.425
6561,27.425
6562,27.425
6563,27.425
6564,27.425
6565,27.425
6566,27.425
6567,27.425
6568,27.425
6569,27.425
6570,27.425
6571,98.677
6572,98.677
6573,98.677
6574,98.677
6575,98.677
6576,98.677
6577,98.677
6578,98.677
6579,98.677
6580,98.677
6581,98.677
6582,129.851
6583,159.327
6584,232.422
6585,287.308
6586,290.712
6587,294.456
6588,270.833
6589,332.916
6590,358.697
6591,364.956
6592,360.408
6593,88.853
6594,27.425
6595,98.677
6596,98.677
6597,98.677
6598,98.677
6599,98.677
6600,98.677
6601,98.677
6602,98.677
6603,98.677
6604,98.677
6605,98.677
6606,129.851
6607,159.327
6608,229.758
6609,285.624
6610,292.541
6611,296.595
6612,280.705
6613,339.816
6614,354.355
6615,352.131
6616,336.746
6617,88.853
6618,27.425
6619,98.677
6620,98.677
6621,98.677
6622,98.677
6623,98.677
6624,98.677
6625,98.677
6626,98.677
6627,98.677
6628,98.677
6629,98.677
6630,129.851
6631,159.327
6632,229.965
6633,285.972
6634,291.702
6635,295.293
6636,275.986
6637,335.339
6638,355.447
6639,363.156
6640,358.918
6641,107.57
6642,27.425
6643,98.677
6644,98.677
6645,98.677
6646,98.677
6647,98.677
6648,98.677
6649,98.677
6650,98.677
6651,98.677
6652,98.677
6653,98.677
6654,129.851
6655,159.327
6656,234.907
6657,292.154
6658,297.793
6659,327.214
6660,318.193
6661,357.455
6662,359.98
6663,362.587
6664,330.781
6665,88.853
6666,27.425
6667,98.677
6668,98.677
6669,98.677
6670,98.677
6671,98.677
6672,98.677
6673,98.677
6674,98.677
6675,98.677
6676,98.677
6677,98.677
6678,129.851
6679,161.913
6680,240.898
6681,296.102
6682,313.848
6683,354.823
6684,340.083
6685,384.663
6686,395.273
6687,396.309
6688,390.036
6689,123.053
6690,47.519
6691,98.677
6692,98.677
6693,98.677
6694,98.677
6695,98.677
6696,98.677
6697,98.677
6698,98.677
6699,98.677
6700,98.677
6701,98.677
6702,98.677
6703,70.474
6704,75.912
6705,123.48
6706,156.047
6707,191.512
6708,142.642
6709,112.057
6710,96.607
6711,143.19
6712,81.875
6713,66.119
6714,43.766
6715,98.677
6716,98.677
6717,98.677
6718,98.677
6719,98.677
6720,98.677
6721,98.677
6722,98.677
6723,98.677
6724,98.677
6725,98.677
6726,98.677
6727,39.3
6728,27.425
6729,27.425
6730,27.425
6731,27.425
6732,50.829
6733,82.177
6734,95.703
6735,93.671
6736,79.555
6737,59.602
6738,42.769
6739,98.677
6740,98.677
6741,98.677
6742,98.677
6743,98.677
6744,98.677
6745,98.677
6746,98.677
6747,98.677
6748,98.677
6749,98.677
6750,98.677
6751,51.176
6752,27.425
6753,27.425
6754,27.425
6755,27.425
6756,27.425
6757,27.425
6758,43.032
6759,54.171
6760,48.459
6761,27.425
6762,39.3
6763,98.677
6764,98.677
6765,98.677
6766,98.677
6767,98.677
6768,98.677
6769,98.677
6770,98.677
6771,98.677
6772,98.677
6773,98.677
6774,129.851
6775,171.202
6776,229.764
6777,285.672
6778,292.787
6779,297.878
6780,291.513
6781,345.045
6782,360.781
6783,365.3
6784,362.596
6785,108.489
6786,39.3
6787,98.677
6788,98.677
6789,98.677
6790,98.677
6791,98.677
6792,98.677
6793,98.677
6794,98.677
6795,98.677
6796,98.677
6797,98.677
6798,129.851
6799,171.202
6800,230.068
6801,287.936
6802,295.998
6803,311.703
6804,305.177
6805,349.564
6806,361.022
6807,365.277
6808,362.808
6809,108.534
6810,39.3
6811,98.677
6812,98.677
6813,98.677
6814,98.677
6815,98.677
6816,98.677
6817,98.677
6818,98.677
6819,98.677
6820,98.677
6821,98.677
6822,129.851
6823,171.202
6824,230.478
6825,288.637
6826,295.908
6827,312.178
6828,303.763
6829,346.483
6830,353.715
6831,340.285
6832,323.987
6833,88.853
6834,39.3
6835,98.677
6836,98.677
6837,98.677
6838,98.677
6839,98.677
6840,98.677
6841,98.677
6842,98.677
6843,98.677
6844,98.677
6845,98.677
6846,129.851
6847,173.233
6848,235.991
6849,285.499
6850,283.536
6851,283.013
6852,256.897
6853,283.939
6854,284.066
6855,286.324
6856,286.019
6857,88.853
6858,39.3
6859,98.677
6860,98.677
6861,98.677
6862,98.677
6863,98.677
6864,98.677
6865,98.677
6866,98.677
6867,98.677
6868,98.677
6869,98.677
6870,98.677
6871,82.35
6872,65.177
6873,107.518
6874,107.518
6875,107.891
6876,58.599
6877,58.599
6878,58.599
6879,58.599
6880,27.425
6881,27.425
6882,39.3
6883,98.677
6884,98.677
6885,98.677
6886,98.677
6887,98.677
6888,98.677
6889,98.677
6890,98.677
6891,98.677
6892,98.677
6893,98.677
6894,98.677
6895,51.176
6896,27.425
6897,27.425
6898,27.425
6899,27.425
6900,27.425
6901,27.425
6902,27.425
6903,27.425
6904,27.425
6905,27.425
6906,39.3
6907,98.677
6908,98.677
6909,98.677
6910,98.677
6911,98.677
6912,98.677
6913,98.677
6914,98.677
6915,98.677
6916,98.677
6917,98.677
6918,129.851
6919,171.202
6920,229.727
6921,282.333
6922,288.986
6923,293.038
6924,267.798
6925,303.292
6926,327.123
6927,340.113
6928,338.529
6929,88.853
6930,39.3
6931,98.677
6932,98.677
6933,98.677
6934,98.677
6935,98.677
6936,98.677
6937,98.677
6938,98.677
6939,98.677
6940,98.677
6941,98.677
6942,129.851
6943,171.202
6944,230.097
6945,286.08
6946,292.567
6947,296.544
6948,275.482
6949,337.086
6950,353.132
6951,352.325
6952,346.435
6953,88.853
6954,51.176
6955,98.677
6956,98.677
6957,98.677
6958,98.677
6959,98.677
6960,98.677
6961,98.677
6962,98.677
6963,98.677
6964,98.677
6965,98.677
6966,129.851
6967,171.202
6968,229.727
6969,278.808
6970,285.448
6971,290.492
6972,264.33
6973,295.93
6974,310.669
6975,317.573
6976,311.474
6977,88.853
6978,51.176
6979,98.677
6980,98.677
6981,98.677
6982,98.677
6983,98.677
6984,98.677
6985,98.677
6986,98.677
6987,98.677
6988,98.677
6989,98.677
6990,129.851
6991,171.202
6992,229.727
6993,281.996
6994,290.767
6995,295.94
6996,275.231
6997,328.667
6998,339.669
6999,349.533
7000,345.26
7001,88.853
7002,51.176
7003,98.677
7004,98.677
7005,98.677
7006,98.677
7007,98.677
7008,98.677
7009,98.677
7010,98.677
7011,98.677
7012,98.677
7013,98.677
7014,129.851
7015,171.202
7016,230.366
7017,288.729
7018,296.021
7019,302.428
7020,294.823
7021,338.862
7022,333.095
7023,314.374
7024,292.388
7025,88.853
7026,51.176
7027,98.677
7028,98.677
7029,98.677
7030,98.677
7031,98.677
7032,98.677
7033,98.677
7034,98.677
7035,98.677
7036,98.677
7037,98.677
7038,98.677
7039,82.35
7040,65.177
7041,110.587
7042,118.693
7043,121.072
7044,68.641
7045,69.313
7046,69.922
7047,69.63
7048,27.425
7049,27.425
7050,51.176
7051,98.677
7052,98.677
7053,98.677
7054,98.677
7055,98.677
7056,98.677
7057,98.677
7058,98.677
7059,98.677
7060,98.677
7061,98.677
7062,98.677
7063,51.176
7064,27.425
7065,27.425
7066,27.425
7067,27.425
7068,27.425
7069,27.425
7070,27.425
7071,27.425
7072,27.425
7073,27.425
7074,51.176
7075,98.677
7076,98.677
7077,98.677
7078,98.677
7079,98.677
7080,98.677
7081,98.677
7082,98.677
7083,98.677
7084,98.677
7085,98.677
7086,129.851
7087,171.202
7088,229.727
7089,277.999
7090,277.999
7091,277.999
7092,250.574
7093,279.944
7094,281.146
7095,282.551
7096,282.395
7097,88.853
7098,51.176
7099,98.677
7100,98.677
7101,98.677
7102,98.677
7103,98.677
7104,98.677
7105,98.677
7106,98.677
7107,98.677
7108,98.677
7109,98.677
7110,129.851
7111,171.202
7112,229.727
7113,277.999
7114,277.999
7115,279.126
7116,254.861
7117,286.389
7118,288.528
7119,289.038
7120,288.829
7121,88.853
7122,51.176
7123,98.677
7124,98.677
7125,98.677
7126,98.677
7127,98.677
7128,98.677
7129,98.677
7130,98.677
7131,98.677
7132,98.677
7133,98.677
7134,129.851
7135,171.202
7136,229.727
7137,277.999
7138,279.273
7139,284.637
7140,257.888
7141,286.3
7142,288.676
7143,287.91
7144,287.702
7145,88.853
7146,51.176
7147,98.677
7148,98.677
7149,98.677
7150,98.677
7151,98.677
7152,98.677
7153,98.677
7154,98.677
7155,98.677
7156,98.677
7157,98.677
7158,129.851
7159,171.202
7160,229.727
7161,278.131
7162,284.702
7163,288.994
7164,261.949
7165,292.44
7166,293.473
7167,292.324
7168,291.291
7169,88.853
7170,51.176
7171,98.677
7172,98.677
7173,98.677
7174,98.677
7175,98.677
7176,98.677
7177,98.677
7178,98.677
7179,98.677
7180,98.677
7181,98.677
7182,129.851
7183,171.202
7184,229.727
7185,277.999
7186,279.191
7187,284.319
7188,259.177
7189,289.805
7190,291.225
7191,291.823
7192,291.282
7193,88.853
7194,51.176
7195,98.677
7196,98.677
7197,98.677
7198,98.677
7199,98.677
7200,98.677
7201,98.677
7202,98.677
7203,98.677
7204,98.677
7205,98.677
7206,98.677
7207,94.225
7208,65.177
7209,107.518
7210,107.518
7211,109.639
7212,63.306
7213,65.372
7214,66.459
7215,66.973
7216,27.425
7217,27.425
7218,63.051
7219,98.677
7220,98.677
7221,98.677
7222,98.677
7223,98.677
7224,98.677
7225,98.677
7226,98.677
7227,98.677
7228,98.677
7229,98.677
7230,98.677
7231,63.051
7232,27.425
7233,27.425
7234,27.425
7235,27.425
7236,27.425
7237,27.425
7238,27.425
7239,27.425
7240,27.425
7241,27.425
7242,63.051
7243,98.677
7244,98.677
7245,98.677
7246,98.677
7247,98.677
7248,98.677
7249,98.677
7250,98.677
7251,98.677
7252,98.677
7253,98.677
7254,129.851
7255,183.078
7256,232.252
7257,287.499
7258,291.392
7259,292.727
7260,263.636
7261,292.354
7262,292.497
7263,292.419
7264,291.471
7265,88.853
7266,63.051
7267,98.677
7268,98.677
7269,98.677
7270,98.677
7271,98.677
7272,98.677
7273,98.677
7274,98.677
7275,98.677
7276,98.677
7277,98.677
7278,129.851
7279,183.078
7280,229.727
7281,278.55
7282,280.471
7283,283.918
7284,257.027
7285,287.937
7286,288.865
7287,287.958
7288,285.256
7289,88.853
7290,63.051
7291,98.677
7292,98.677
7293,98.677
7294,98.677
7295,98.677
7296,98.677
7297,98.677
7298,98.677
7299,98.677
7300,98.677
7301,98.677
7302,129.851
7303,183.078
7304,230.939
7305,290.036
7306,294.754
7307,296.617
7308,269.389
7309,297.089
7310,296.451
7311,296.238
7312,294.397
7313,88.853
7314,63.051
7315,98.677
7316,98.677
7317,98.677
7318,98.677
7319,98.677
7320,98.677
7321,98.677
7322,98.677
7323,98.677
7324,98.677
7325,98.677
7326,129.851
7327,183.078
7328,230.77
7329,286.303
7330,290.485
7331,293.636
7332,264.653
7333,290.659
7334,290.197
7335,292.488
7336,291.666
7337,88.853
7338,63.051
7339,98.677
7340,98.677
7341,98.677
7342,98.677
7343,98.677
7344,98.677
7345,98.677
7346,98.677
7347,98.677
7348,98.677
7349,98.677
7350,129.851
7351,183.078
7352,229.727
7353,281.738
7354,287.969
7355,285.66
7356,255.235
7357,285.628
7358,286.872
7359,289.191
7360,287.996
7361,88.853
7362,63.051
7363,98.677
7364,98.677
7365,98.677
7366,98.677
7367,98.677
7368,98.677
7369,98.677
7370,98.677
7371,98.677
7372,98.677
7373,98.677
7374,98.677
7375,94.225
7376,65.177
7377,107.518
7378,107.518
7379,107.663
7380,58.599
7381,58.599
7382,58.599
7383,58.599
7384,27.425
7385,27.425
7386,63.051
7387,98.677
7388,98.677
7389,98.677
7390,98.677
7391,98.677
7392,98.677
7393,98.677
7394,98.677
7395,98.677
7396,98.677
7397,98.677
7398,98.677
7399,63.051
7400,27.425
7401,27.425
7402,27.425
7403,27.425
7404,27.425
7405,27.425
7406,27.425
7407,27.425
7408,27.425
7409,27.425
7410,63.051
7411,98.677
7412,98.677
7413,98.677
7414,98.677
7415,98.677
7416,98.677
7417,98.677
7418,98.677
7419,98.677
7420,98.677
7421,98.677
7422,98.677
7423,94.225
7424,147.452
7425,230.208
7426,286.75
7427,289.472
7428,290.911
7429,263.96
7430,291.756
7431,292.407
7432,292.137
7433,288.979
7434,124.479
7435,98.677
7436,98.677
7437,98.677
7438,98.677
7439,98.677
7440,98.677
7441,98.677
7442,98.677
7443,98.677
7444,98.677
7445,98.677
7446,98.677
7447,94.225
7448,147.452
7449,229.727
7450,282.867
7451,290.827
7452,293.439
7453,266.308
7454,296.757
7455,298.386
7456,297.157
7457,293.092
7458,124.479
7459,98.677
7460,98.677
7461,98.677
7462,98.677
7463,98.677
7464,98.677
7465,98.677
7466,98.677
7467,98.677
7468,98.677
7469,98.677
7470,98.677
7471,94.225
7472,147.452
7473,229.727
7474,278.465
7475,284.761
7476,288.572
7477,262.863
7478,289.639
7479,287.186
7480,287.397
7481,286.583
7482,124.479
7483,98.677
7484,98.677
7485,98.677
7486,98.677
7487,98.677
7488,98.677
7489,98.677
7490,98.677
7491,98.677
7492,98.677
7493,98.677
7494,98.677
7495,94.225
7496,147.452
7497,229.727
7498,280.061
7499,285.055
7500,287.342
7501,259.785
7502,290.053
7503,287.52
7504,285.255
7505,283.526
7506,124.479
7507,98.677
7508,98.677
7509,98.677
7510,98.677
7511,98.677
7512,98.677
7513,98.677
7514,98.677
7515,98.677
7516,98.677
7517,98.677
7518,98.677
7519,94.225
7520,147.452
7521,229.727
7522,278.068
7523,278.199
7524,278.804
7525,253.572
7526,282.912
7527,282.633
7528,281.973
7529,280.192
7530,124.479
7531,98.677
7532,98.677
7533,98.677
7534,98.677
7535,98.677
7536,98.677
7537,98.677
7538,98.677
7539,98.677
7540,98.677
7541,98.677
7542,98.677
7543,63.051
7544,27.425
7545,27.425
7546,27.425
7547,27.425
7548,27.425
7549,27.425
7550,27.425
7551,27.425
7552,27.425
7553,27.425
7554,63.051
7555,98.677
7556,98.677
7557,98.677
7558,98.677
7559,98.677
7560,98.677
7561,98.677
7562,98.677
7563,98.677
7564,98.677
7565,98.677
7566,98.677
7567,74.927
7568,27.425
7569,27.425
7570,27.425
7571,27.425
7572,27.425
7573,27.425
7574,27.425
7575,27.425
7576,27.425
7577,27.425
7578,63.051
7579,98.677
7580,98.677
7581,98.677
7582,98.677
7583,98.677
7584,98.677
7585,98.677
7586,98.677
7587,98.677
7588,98.677
7589,98.677
7590,98.677
7591,106.1
7592,147.452
7593,229.727
7594,277.999
7595,277.999
7596,278.141
7597,252.222
7598,280.487
7599,281.974
7600,280.901
7601,279.673
7602,136.354
7603,98.677
7604,98.677
7605,98.677
7606,98.677
7607,98.677
7608,98.677
7609,98.677
7610,98.677
7611,98.677
7612,98.677
7613,98.677
7614,98.677
7615,106.1
7616,147.452
7617,229.727
7618,277.999
7619,278.155
7620,282.852
7621,257.49
7622,286.608
7623,287.594
7624,286.892
7625,283.594
7626,136.354
7627,98.677
7628,98.677
7629,98.677
7630,98.677
7631,98.677
7632,98.677
7633,98.677
7634,98.677
7635,98.677
7636,98.677
7637,98.677
7638,98.677
7639,106.1
7640,147.452
7641,229.727
7642,279.358
7643,282.606
7644,283.609
7645,256.644
7646,285.074
7647,284.921
7648,284.254
7649,282.588
7650,136.354
7651,98.677
7652,98.677
7653,98.677
7654,98.677
7655,98.677
7656,98.677
7657,98.677
7658,98.677
7659,98.677
7660,98.677
7661,98.677
7662,98.677
7663,106.1
7664,147.452
7665,230.95
7666,283.251
7667,285.527
7668,287.956
7669,260.122
7670,288.008
7671,287.773
7672,287.559
7673,285.188
7674,136.354
7675,98.677
7676,98.677
7677,98.677
7678,98.677
7679,98.677
7680,98.677
7681,98.677
7682,98.677
7683,98.677
7684,98.677
7685,98.677
7686,98.677
7687,106.1
7688,147.452
7689,229.727
7690,281.185
7691,286.344
7692,290.293
7693,263.572
7694,291.618
7695,291.812
7696,289.215
7697,286.544
7698,136.354
7699,98.677
7700,98.677
7701,98.677
7702,98.677
7703,98.677
7704,98.677
7705,98.677
7706,98.677
7707,98.677
7708,98.677
7709,98.677
7710,98.677
7711,74.927
7712,58.599
7713,65.177
7714,107.518
7715,109.345
7716,112.351
7717,62.24
7718,63.582
7719,63.315
7720,60.977
7721,27.425
7722,74.927
7723,98.677
7724,98.677
7725,98.677
7726,98.677
7727,98.677
7728,98.677
7729,98.677
7730,98.677
7731,98.677
7732,98.677
7733,98.677
7734,98.677
7735,74.927
7736,27.425
7737,27.425
7738,27.425
7739,27.425
7740,27.425
7741,27.425
7742,27.425
7743,27.425
7744,27.425
7745,27.425
7746,74.927
7747,98.677
7748,98.677
7749,98.677
7750,98.677
7751,98.677
7752,98.677
7753,98.677
7754,98.677
7755,98.677
7756,98.677
7757,98.677
7758,98.677
7759,106.1
7760,147.452
7761,229.727
7762,277.999
7763,279.937
7764,285.75
7765,260.141
7766,290.843
7767,292.099
7768,290.295
7769,286.743
7770,136.354
7771,98.677
7772,98.677
7773,98.677
7774,98.677
7775,98.677
7776,98.677
7777,98.677
7778,98.677
7779,98.677
7780,98.677
7781,98.677
7782,98.677
7783,106.1
7784,147.452
7785,229.727
7786,277.999
7787,277.999
7788,280.677
7789,255.397
7790,285.78
7791,286.679
7792,287.094
7793,284.707
7794,136.354
7795,98.677
7796,98.677
7797,98.677
7798,98.677
7799,98.677
7800,98.677
7801,98.677
7802,98.677
7803,98.677
7804,98.677
7805,98.677
7806,98.677
7807,106.1
7808,147.452
7809,229.727
7810,277.999
7811,277.999
7812,277.999
7813,250.574
7814,278.755
7815,280.297
7816,280.616
7817,278.408
7818,136.354
7819,98.677
7820,98.677
7821,98.677
7822,98.677
7823,98.677
7824,98.677
7825,98.677
7826,98.677
7827,98.677
7828,98.677
7829,98.677
7830,98.677
7831,74.927
7832,27.425
7833,27.425
7834,27.425
7835,27.425
7836,27.425
7837,27.425
7838,27.425
7839,27.425
7840,27.425
7841,27.425
7842,74.927
7843,98.677
7844,98.677
7845,98.677
7846,98.677
7847,98.677
7848,98.677
7849,98.677
7850,98.677
7851,98.677
7852,98.677
7853,98.677
7854,98.677
7855,106.1
7856,147.452
7857,229.727
7858,279.359
7859,285.147
7860,288.287
7861,261.779
7862,292.674
7863,291.122
7864,289.585
7865,287.946
7866,136.354
7867,98.677
7868,98.677
7869,98.677
7870,98.677
7871,98.677
7872,98.677
7873,98.677
7874,98.677
7875,98.677
7876,98.677
7877,98.677
7878,98.677
7879,74.927
7880,58.599
7881,65.177
7882,107.518
7883,107.518
7884,107.518
7885,58.599
7886,58.599
7887,58.599
7888,58.599
7889,27.425
7890,74.927
7891,98.677
7892,98.677
7893,98.677
7894,98.677
7895,98.677
7896,98.677
7897,98.677
7898,98.677
7899,98.677
7900,98.677
7901,98.677
7902,100.002
7903,88.743
7904,27.425
7905,27.425
7906,27.425
7907,27.425
7908,27.425
7909,27.425
7910,27.425
7911,27.425
7912,27.425
7913,27.425
7914,74.927
7915,98.677
7916,98.677
7917,98.677
7918,98.677
7919,98.677
7920,98.677
7921,98.677
7922,98.677
7923,98.677
7924,98.677
7925,98.677
7926,98.677
7927,117.976
7928,147.452
7929,229.727
7930,277.999
7931,277.999
7932,277.999
7933,250.78
7934,283.211
7935,285.722
7936,284.112
7937,280.976
7938,136.354
7939,98.677
7940,98.677
7941,98.677
7942,98.677
7943,98.677
7944,98.677
7945,98.677
7946,98.677
7947,98.677
7948,98.677
7949,98.677
7950,98.677
7951,117.976
7952,147.452
7953,229.727
7954,277.999
7955,278.657
7956,282.362
7957,257.821
7958,287.631
7959,289.331
7960,288.493
7961,285.465
7962,136.354
7963,98.677
7964,98.677
7965,98.677
7966,98.677
7967,98.677
7968,98.677
7969,98.677
7970,98.677
7971,98.677
7972,98.677
7973,98.677
7974,98.677
7975,117.976
7976,147.452
7977,229.727
7978,278.123
7979,281.317
7980,282.908
7981,254.79
7982,285.04
7983,282.043
7984,280.383
7985,280.937
7986,136.354
7987,98.677
7988,98.677
7989,98.677
7990,98.677
7991,98.677
7992,98.677
7993,98.677
7994,98.677
7995,98.677
7996,98.677
7997,98.677
7998,98.677
7999,117.976
8000,147.452
8001,229.727
8002,278.941
8003,285.566
8004,291.157
8005,264.434
8006,294.262
8007,294.017
8008,290.605
8009,287.412
8010,136.354
8011,98.677
8012,98.677
8013,98.677
8014,98.677
8015,98.677
8016,98.677
8017,98.677
8018,98.677
8019,98.677
8020,98.677
8021,98.677
8022,101.015
8023,117.976
8024,147.452
8025,229.727
8026,277.999
8027,277.999
8028,277.999
8029,250.574
8030,277.999
8031,277.999
8032,277.999
8033,277.999
8034,136.354
8035,98.677
8036,98.677
8037,98.677
8038,100.128
8039,101.332
8040,103.5
8041,103.052
8042,105.058
8043,103.076
8044,103.971
8045,101.34
8046,98.677
8047,86.802
8048,58.599
8049,65.177
8050,107.518
8051,107.518
8052,107.518
8053,58.599
8054,58.599
8055,58.599
8056,58.599
8057,27.425
8058,74.927
8059,98.677
8060,98.677
8061,98.677
8062,98.677
8063,98.677
8064,98.677
8065,98.677
8066,98.677
8067,98.677
8068,98.677
8069,98.677
8070,98.677
8071,86.802
8072,27.425
8073,27.425
8074,27.425
8075,27.425
8076,27.425
8077,27.425
8078,27.425
8079,27.425
8080,27.425
8081,27.425
8082,74.927
8083,98.677
8084,98.677
8085,98.677
8086,98.677
8087,98.677
8088,98.677
8089,98.677
8090,98.677
8091,98.677
8092,98.677
8093,98.677
8094,98.677
8095,117.976
8096,147.452
8097,229.727
8098,277.999
8099,277.999
8100,277.999
8101,250.574
8102,278.955
8103,278.251
8104,277.999
8105,277.999
8106,136.354
8107,98.677
8108,98.677
8109,98.677
8110,98.677
8111,98.677
8112,98.677
8113,98.677
8114,98.677
8115,98.677
8116,98.677
8117,98.677
8118,98.677
8119,117.976
8120,147.452
8121,229.727
8122,277.999
8123,277.999
8124,277.999
8125,250.751
8126,278.796
8127,277.999
8128,277.999
8129,277.999
8130,136.354
8131,98.677
8132,98.677
8133,98.677
8134,98.677
8135,98.677
8136,98.677
8137,98.677
8138,98.677
8139,98.677
8140,98.677
8141,98.677
8142,98.677
8143,117.976
8144,147.452
8145,229.727
8146,277.999
8147,277.999
8148,277.999
8149,250.574
8150,280.817
8151,280.016
8152,279.566
8153,277.999
8154,136.354
8155,98.677
8156,98.677
8157,98.677
8158,98.677
8159,98.677
8160,98.677
8161,98.677
8162,98.677
8163,98.677
8164,98.677
8165,98.677
8166,98.677
8167,117.976
8168,147.452
8169,229.727
8170,277.999
8171,277.999
8172,277.999
8173,250.574
8174,277.999
8175,277.999
8176,277.999
8177,277.999
8178,136.354
8179,98.677
8180,98.677
8181,98.677
8182,98.677
8183,98.677
8184,98.677
8185,98.677
8186,99.424
8187,100.556
8188,101.472
8189,102.115
8190,103.809
8191,117.976
8192,147.452
8193,229.727
8194,277.999
8195,277.999
8196,277.999
8197,250.574
8198,277.999
8199,277.999
8200,277.999
8201,277.999
8202,136.354
8203,98.677
8204,98.677
8205,98.677
8206,98.677
8207,98.677
8208,98.677
8209,98.677
8210,98.677
8211,98.677
8212,99.526
8213,102.087
8214,102.346
8215,91.333
8216,58.599
8217,65.177
8218,107.518
8219,107.518
8220,107.518
8221,58.599
8222,58.599
8223,58.599
8224,58.599
8225,27.425
8226,74.927
8227,98.677
8228,98.677
8229,98.677
8230,98.677
8231,98.677
8232,98.677
8233,98.677
8234,98.677
8235,98.677
8236,98.677
8237,98.677
8238,98.677
8239,98.677
8240,27.425
8241,27.425
8242,27.425
8243,27.425
8244,27.425
8245,27.425
8246,27.425
8247,27.425
8248,27.425
8249,27.425
8250,74.927
8251,98.677
8252,98.677
8253,98.677
8254,98.677
8255,98.677
8256,98.677
8257,98.677
8258,98.677
8259,98.677
8260,98.677
8261,98.677
8262,98.677
8263,129.851
8264,147.452
8265,229.727
8266,277.999
8267,277.999
8268,278.157
8269,251.106
8270,279.566
8271,279.337
8272,278.603
8273,277.999
8274,136.354
8275,98.677
8276,98.677
8277,98.677
8278,98.677
8279,98.677
8280,98.677
8281,98.677
8282,98.677
8283,98.677
8284,98.677
8285,98.677
8286,98.677
8287,129.851
8288,147.452
8289,229.727
8290,277.999
8291,277.999
8292,277.999
8293,250.574
8294,277.999
8295,277.999
8296,278.746
8297,277.999
8298,136.354
8299,98.677
8300,98.677
8301,98.677
8302,98.677
8303,98.677
8304,98.677
8305,98.677
8306,98.677
8307,98.677
8308,98.677
8309,98.677
8310,98.677
8311,129.851
8312,147.452
8313,229.727
8314,277.999
8315,277.999
8316,279.554
8317,257.615
8318,287.235
8319,286.12
8320,287.45
8321,284.257
8322,136.354
8323,98.677
8324,98.677
8325,98.677
8326,98.677
8327,98.677
8328,98.677
8329,98.677
8330,98.677
8331,98.677
8332,98.677
8333,98.677
8334,98.677
8335,129.851
8336,147.452
8337,229.727
8338,277.999
8339,277.999
8340,278.766
8341,256.169
8342,286.649
8343,284.634
8344,284.579
8345,280.104
8346,136.354
8347,98.677
8348,98.677
8349,98.677
8350,98.677
8351,98.677
8352,98.677
8353,98.677
8354,98.677
8355,98.677
8356,98.677
8357,98.677
8358,98.677
8359,129.851
8360,147.452
8361,229.727
8362,277.999
8363,278.089
8364,281.114
8365,254.284
8366,284.646
8367,284.652
8368,285.542
8369,282.396
8370,136.354
8371,98.677
8372,98.677
8373,98.677
8374,98.677
8375,98.677
8376,98.677
8377,98.677
8378,98.677
8379,98.677
8380,98.677
8381,98.677
8382,98.677
8383,98.677
8384,58.599
8385,65.177
8386,107.518
8387,107.518
8388,107.518
8389,58.599
8390,58.599
8391,58.599
8392,58.599
8393,27.425
8394,74.927
8395,98.677
8396,98.677
8397,98.677
8398,98.677
8399,98.677
8400,98.677
8401,98.677
8402,98.677
8403,98.677
8404,98.677
8405,98.677
8406,98.677
8407,98.677
8408,27.425
8409,27.425
8410,27.425
8411,27.425
8412,27.425
8413,27.425
8414,27.425
8415,27.425
8416,27.425
8417,27.425
8418,74.927
8419,98.677
8420,98.677
8421,98.677
8422,98.677
8423,98.677
8424,98.677
8425,98.677
8426,98.677
8427,98.677
8428,98.677
8429,98.677
8430,98.677
8431,129.851
8432,147.452
8433,229.727
8434,277.999
8435,277.999
8436,277.999
8437,250.574
8438,277.999
8439,277.999
8440,277.999
8441,277.999
8442,136.354
8443,98.677
8444,98.677
8445,98.677
8446,98.677
8447,98.677
8448,98.677
8449,98.677
8450,98.677
8451,98.677
8452,98.677
8453,98.677
8454,98.677
8455,129.851
8456,147.452
8457,229.727
8458,277.999
8459,277.999
8460,280.311
8461,257.614
8462,288.627
8463,288.66
8464,286.05
8465,283.089
8466,136.354
8467,98.677
8468,98.677
8469,98.677
8470,98.677
8471,98.677
8472,98.677
8473,98.677
8474,98.677
8475,98.677
8476,98.677
8477,98.677
8478,98.677
8479,129.851
8480,147.452
8481,229.727
8482,277.999
8483,277.999
8484,277.999
8485,250.574
8486,277.999
8487,277.999
8488,277.999
8489,277.999
8490,136.354
8491,98.677
8492,98.677
8493,98.677
8494,98.677
8495,100.364
8496,102.38
8497,103.649
8498,104.813
8499,105.937
8500,106.761
8501,108.206
8502,109.107
8503,129.851
8504,147.452
8505,229.727
8506,277.999
8507,277.999
8508,277.999
8509,250.574
8510,277.999
8511,277.999
8512,277.999
8513,277.999
8514,124.479
8515,98.677
8516,98.677
8517,98.677
8518,98.677
8519,98.677
8520,101.719
8521,103.929
8522,104.674
8523,105.491
8524,105.142
8525,106.19
8526,106.474
8527,129.851
8528,147.452
8529,229.727
8530,277.999
8531,277.999
8532,277.999
8533,250.574
8534,277.999
8535,277.999
8536,277.999
8537,277.999
8538,124.479
8539,98.677
8540,98.677
8541,98.677
8542,99.506
8543,101.267
8544,101.276
8545,102.622
8546,102.183
8547,104.483
8548,103.691
8549,106.086
8550,104.27
8551,106.296
8552,58.599
8553,65.177
8554,107.518
8555,107.518
8556,107.518
8557,58.599
8558,58.599
8559,58.599
8560,58.599
8561,27.425
8562,63.051
8563,98.677
8564,98.677
8565,98.677
8566,98.677
8567,98.677
8568,98.677
8569,98.677
8570,98.677
8571,98.677
8572,98.677
8573,98.677
8574,98.677
8575,98.677
8576,27.425
8577,27.425
8578,27.425
8579,27.425
8580,27.425
8581,27.425
8582,27.425
8583,27.425
8584,27.425
8585,27.425
8586,63.051
8587,98.677
8588,98.677
8589,98.677
8590,98.677
8591,98.677
8592,98.677
8593,98.677
8594,98.677
8595,98.677
8596,98.677
8597,98.677
8598,98.677
8599,98.677
8600,27.425
8601,27.425
8602,27.425
8603,27.425
8604,27.425
8605,27.425
8606,27.425
8607,27.425
8608,27.425
8609,27.425
8610,63.051
8611,98.677
8612,98.677
8613,98.677
8614,98.677
8615,98.677
8616,98.677
8617,98.677
8618,98.677
8619,98.677
8620,98.677
8621,98.677
8622,98.677
8623,129.851
8624,147.452
8625,229.727
8626,277.999
8627,277.999
8628,277.999
8629,250.574
8630,277.999
8631,277.999
8632,277.999
8633,277.999
8634,124.479
8635,98.677
8636,98.677
8637,98.677
8638,98.677
8639,100.908
8640,103.487
8641,103.43
8642,106.57
8643,105.165
8644,108.163
8645,106.327
8646,109.63
8647,129.851
8648,147.452
8649,229.727
8650,277.999
8651,277.999
8652,277.999
8653,250.574
8654,277.999
8655,277.999
8656,277.999
8657,277.999
8658,124.479
8659,98.677
8660,98.677
8661,98.677
8662,98.677
8663,98.677
8664,98.677
8665,98.677
8666,98.677
8667,98.677
8668,98.677
8669,98.677
8670,98.677
8671,129.851
8672,159.327
8673,229.727
8674,277.999
8675,277.999
8676,277.999
8677,250.574
8678,277.999
8679,277.999
8680,277.999
8681,277.999
8682,124.479
8683,98.677
8684,98.677
8685,98.677
8686,98.677
8687,98.677
8688,98.677
8689,98.677
8690,98.677
8691,98.677
8692,98.677
8693,98.677
8694,98.677
8695,129.851
8696,159.327
8697,229.727
8698,277.999
8699,277.999
8700,277.999
8701,250.574
8702,277.999
8703,277.999
8704,277.999
8705,277.999
8706,124.479
8707,98.677
8708,98.677
8709,98.677
8710,98.677
8711,98.677
8712,98.677
8713,98.677
8714,98.677
8715,98.677
8716,98.677
8717,98.677
8718,98.677
8719,98.677
8720,70.474
8721,65.177
8722,107.518
8723,107.518
8724,107.518
8725,58.599
8726,58.599
8727,58.599
8728,58.599
8729,27.425
8730,63.051
8731,98.677
8732,98.677
8733,98.677
8734,98.677
8735,98.677
8736,98.677
8737,98.677
8738,98.677
8739,98.677
8740,98.677
8741,98.677
8742,98.677
8743,98.677
8744,39.3
8745,27.425
8746,27.425
8747,27.425
8748,27.425
8749,27.425
8750,27.425
8751,27.425
8752,27.425
8753,27.425
8754,63.051
8755,98.677
8756,98.677
8757,98.677
8758,98.677
8759,98.677
8760,98.677