Hour,Load (kW)
1,90.558
2,83.372
3,89.729
4,82.541
5,88.699
6,82.126
7,88.846
8,67.591
9,45.183
10,38.45
11,45.254
12,38.658
13,45.545
14,38.535
15,44.962
16,38.237
17,45.203
18,60.533
19,89.7
20,83.284
21,91.782
22,85.14
23,93.459
24,86.213
25,94.657
26,87.043
27,95.845
28,88.558
29,97.127
30,88.889
31,110.544
32,149.872
33,170.879
34,200.041
35,200.041
36,200.041
37,183.473
38,198.858
39,199.053
40,199.053
41,199.053
42,86.973
43,72.109
44,79.149
45,76.756
46,83.615
47,78.936
48,85.012
49,79.304
50,85.889
51,80.625
52,86.991
53,80.972
54,86.654
55,110.544
56,149.872
57,170.879
58,198.974
59,198.907
60,199.053
61,182.486
62,199.053
63,199.053
64,199.053
65,199.053
66,79.093
67,66.863
68,68.021
69,70.218
70,71.726
71,73.04
72,72.425
73,74.094
74,73.108
75,73.938
76,72.177
77,72.818
78,72.81
79,109.556
80,148.885
81,169.892
82,199.053
83,199.053
84,199.053
85,182.486
86,199.053
87,199.053
88,199.053
89,199.053
90,86.319
91,70.778
92,75.826
93,72.782
94,77.898
95,74.367
96,80.132
97,75.465
98,81.658
99,78.845
100,85.748
101,80.499
102,86.959
103,110.544
104,149.872
105,170.879
106,199.614
107,198.956
108,199.053
109,182.486
110,199.053
111,199.053
112,199.053
113,199.053
114,79.955
115,68.604
116,70.074
117,72.63
118,72.668
119,73.879
120,72.418
121,73.328
122,72.615
123,74.109
124,73.095
125,74.401
126,73.59
127,109.556
128,148.885
129,169.892
130,199.053
131,199.053
132,199.053
133,182.486
134,199.053
135,199.053
136,199.053
137,199.053
138,83.294
139,67.608
140,70.502
141,68.143
142,70.51
143,67.814
144,70.269
145,67.397
146,69.056
147,66.861
148,69.001
149,67.16
150,69.759
151,67.771
152,95.208
153,70.486
154,96.065
155,96.065
156,96.065
157,66.512
158,66.512
159,66.512
160,66.512
161,24.051
162,45.643
163,71.165
164,69.267
165,73.151
166,70.497
167,74.638
168,71.478
169,75.758
170,72.049
171,75.899
172,71.595
173,74.882
174,70.682
175,73.627
176,55.566
177,30.107
178,26.919
179,30.568
180,27.402
181,31.308
182,27.75
183,31.402
184,28.022
185,32.077
186,42.981
187,76.276
188,72.833
189,77.792
190,73.773
191,78.368
192,73.961
193,78.53
194,74.033
195,78.931
196,74.883
197,80.051
198,75.104
199,109.556
200,148.885
201,169.892
202,199.053
203,199.053
204,199.053
205,182.486
206,199.053
207,199.053
208,199.053
209,199.053
210,74.366
211,67.615
212,73.304
213,72.628
214,78.813
215,75.629
216,81.88
217,79.963
218,87.297
219,82.669
220,89.26
221,84.151
222,91.187
223,110.544
224,149.872
225,170.879
226,200.041
227,200.041
228,200.041
229,183.473
230,198.761
231,198.956
232,199.053
233,199.053
234,84.472
235,76.963
236,84.516
237,81.033
238,88.126
239,83.252
240,89.264
241,83.381
242,90.169
243,84.764
244,92.185
245,86.767
246,93.912
247,110.544
248,149.872
249,170.879
250,200.041
251,200.041
252,199.614
253,182.291
254,199.053
255,199.053
256,199.053
257,199.053
258,82.532
259,73.691
260,80.454
261,79.62
262,86.15
263,81.311
264,87.432
265,82.031
266,87.784
267,82.249
268,87.849
269,82.299
270,87.588
271,110.544
272,149.872
273,170.879
274,200.041
275,200.041
276,200.041
277,183.473
278,200.041
279,200.041
280,200.041
281,200.041
282,87.47
283,77.298
284,82.64
285,77.7
286,83.06
287,79.06
288,85.822
289,81.585
290,88.805
291,83.536
292,90.765
293,85.065
294,92.507
295,110.544
296,149.872
297,170.879
298,200.041
299,200.041
300,200.041
301,183.473
302,200.041
303,200.041
304,200.041
305,200.041
306,99.334
307,88.492
308,97.295
309,90.218
310,98.352
311,91.235
312,98.916
313,91.665
314,99.116
315,91.976
316,99.264
317,92.216
318,99.373
319,92.624
320,96.196
321,71.473
322,97.052
323,97.052
324,97.052
325,67.5
326,67.5
327,67.5
328,67.5
329,38.401
330,51.249
331,88.645
332,84.302
333,92.277
334,86.669
335,95.044
336,88.727
337,96.642
338,89.739
339,97.936
340,90.884
341,98.744
342,91.751
343,99.446
344,78.668
345,56.321
346,46.136
347,48.661
348,38.303
349,40.083
350,32.876
351,34.297
352,29.56
353,33.454
354,45.448
355,81.873
356,79.904
357,86.755
358,81.839
359,88.701
360,83.53
361,90.892
362,85.262
363,92.795
364,86.285
365,93.362
366,86.28
367,93.017
368,72.158
369,48.698
370,40.095
371,43.563
372,35.794
373,39.31
374,34.154
375,38.042
376,33.617
377,38.618
378,49.902
379,86.041
380,81.713
381,87.767
382,81.984
383,88.151
384,82.133
385,87.69
386,81.982
387,87.792
388,81.815
389,87.208
390,81.5
391,110.544
392,149.872
393,170.879
394,200.041
395,200.041
396,200.041
397,183.473
398,199.188
399,198.761
400,198.761
401,198.761
402,87.098
403,76.757
404,81.877
405,77.329
406,82.297
407,78.274
408,84.407
409,79.572
410,84.974
411,79.553
412,84.824
413,79.63
414,85.193
415,110.544
416,149.872
417,170.879
418,200.041
419,200.041
420,198.974
421,182.486
422,199.053
423,199.053
424,199.053
425,199.053
426,74.123
427,67.462
428,73.049
429,71.49
430,76.577
431,74.625
432,80.973
433,77.53
434,83.616
435,79.285
436,85.236
437,80.646
438,86.037
439,110.544
440,149.872
441,170.879
442,199.188
443,198.956
444,199.053
445,182.486
446,199.053
447,199.053
448,199.053
449,199.053
450,64.638
451,65.619
452,66.786
453,68.715
454,68.461
455,69.576
456,69.26
457,70.971
458,70.718
459,71.981
460,70.689
461,71.509
462,69.427
463,109.556
464,148.885
465,169.892
466,199.053
467,199.053
468,199.053
469,182.486
470,199.053
471,199.053
472,199.053
473,199.053
474,67.999
475,68.241
476,74.13
477,73.659
478,80.249
479,76.849
480,82.572
481,79.081
482,86.315
483,81.462
484,87.67
485,83.236
486,89.974
487,84.031
488,96.196
489,71.473
490,96.839
491,95.919
492,96.065
493,66.512
494,66.512
495,66.512
496,66.512
497,16.568
498,25.218
499,63.988
500,68.344
501,66.885
502,70.754
503,69.037
504,74.326
505,71.875
506,76.988
507,73.631
508,79.331
509,75.177
510,82.533
511,78.875
512,71.601
513,34.754
514,33.481
515,24.763
516,23.395
517,18.881
518,16.568
519,16.568
520,16.568
521,16.568
522,23.742
523,62.233
524,66.101
525,65.758
526,68.226
527,67.105
528,70.581
529,69.203
530,72.854
531,69.679
532,72.351
533,69.809
534,73.048
535,109.556
536,148.885
537,169.892
538,199.053
539,199.053
540,199.053
541,182.486
542,199.053
543,199.053
544,199.053
545,199.053
546,60.851
547,59.612
548,59.612
549,63.037
550,63.759
551,66.449
552,66.279
553,70.271
554,68.273
555,70.882
556,68.014
557,70.105
558,67.492
559,109.556
560,148.885
561,169.892
562,199.053
563,199.053
564,199.053
565,182.486
566,199.053
567,199.053
568,199.053
569,199.053
570,60.851
571,59.612
572,59.612
573,59.612
574,59.612
575,59.612
576,59.612
577,59.612
578,59.612
579,60.965
580,61.463
581,65.128
582,66.795
583,109.556
584,148.885
585,169.892
586,199.053
587,199.053
588,199.053
589,182.486
590,199.053
591,199.053
592,199.053
593,199.053
594,72.941
595,72.518
596,78.91
597,75.139
598,80.688
599,76.061
600,81.878
601,77.815
602,85.342
603,79.801
604,85.914
605,79.902
606,85.921
607,110.544
608,149.872
609,170.879
610,198.974
611,199.053
612,199.053
613,182.486
614,199.053
615,199.053
616,199.053
617,199.053
618,61.615
619,64.496
620,66.351
621,68.9
622,70.363
623,72.629
624,72.477
625,73.526
626,73.465
627,75.619
628,75.984
629,78.399
630,77.035
631,109.556
632,148.885
633,169.892
634,199.053
635,199.053
636,199.053
637,182.486
638,199.053
639,199.053
640,199.053
641,199.053
642,67.532
643,67.344
644,71.977
645,70.825
646,75.714
647,73.747
648,79.046
649,75.214
650,80.768
651,77.199
652,83.717
653,79.51
654,84.469
655,80.111
656,96.196
657,71.473
658,97.052
659,96.839
660,95.772
661,66.512
662,66.512
663,66.512
664,66.512
665,29.127
666,36.356
667,79.349
668,77.777
669,85.602
670,81.854
671,89.026
672,84.023
673,91.11
674,85.682
675,92.398
676,86.028
677,92.94
678,87.005
679,94.079
680,73.23
681,50.038
682,40.969
683,42.704
684,34.903
685,36.015
686,29.261
687,30.675
688,26.403
689,29.368
690,27.863
691,76.24
692,74.453
693,80.215
694,77.125
695,84.276
696,80.973
697,87.065
698,81.916
699,88.925
700,83.601
701,89.544
702,84.206
703,110.544
704,149.872
705,170.879
706,200.041
707,198.858
708,199.053
709,182.486
710,199.053
711,199.053
712,199.053
713,199.053
714,58.561
715,66.493
716,72.498
717,70.857
718,74.87
719,71.764
720,75.966
721,72.457
722,78.033
723,73.918
724,78.547
725,74.37
726,79.108
727,109.556
728,141.711
729,169.892
730,199.053
731,199.053
732,199.053
733,182.486
734,199.053
735,199.053
736,199.053
737,199.053
738,64.704
739,70.469
740,75.533
741,73.296
742,79.307
743,75.463
744,82.097
745,79.546
746,87.93
747,83.248
748,92.287
749,86.643
750,96.281
751,110.544
752,142.698
753,170.879
754,200.041
755,200.041
756,200.041
757,183.473
758,200.041
759,200.041
760,200.041
761,200.041
762,74.466
763,79.928
764,87.703
765,82.679
766,90.546
767,84.98
768,92.72
769,86.839
770,94.445
771,87.863
772,95.599
773,88.476
774,96.103
775,110.544
776,142.698
777,170.879
778,200.041
779,200.041
780,200.041
781,183.26
782,198.761
783,198.907
784,199.053
785,199.053
786,67.615
787,73.431
788,78.701
789,75.166
790,80.353
791,77.411
792,82.585
793,78.614
794,84.317
795,79.549
796,84.743
797,79.791
798,85.242
799,110.544
800,142.698
801,170.879
802,200.041
803,200.041
804,200.041
805,183.473
806,200.041
807,200.041
808,200.041
809,200.041
810,74.751
811,79.868
812,87.657
813,82.126
814,89.071
815,83.342
816,89.735
817,83.252
818,89.142
819,83.247
820,89.472
821,83.374
822,89.6
823,83.343
824,89.022
825,71.473
826,97.052
827,97.052
828,97.052
829,67.5
830,67.5
831,67.5
832,67.5
833,40.059
834,36.794
835,84.706
836,79.54
837,84.723
838,79.313
839,84.547
840,79.132
841,83.843
842,78.558
843,83.005
844,76.095
845,78.127
846,73.434
847,76.328
848,50.875
849,32.928
850,28.068
851,28.889
852,24.512
853,24.689
854,21.014
855,20.54
856,18.659
857,17.964
858,19.304
859,66.164
860,66.97
861,72.465
862,71.401
863,75.598
864,73.102
865,77.834
866,74.782
867,79.906
868,76.328
869,82.334
870,79.59
871,110.544
872,142.698
873,170.239
874,199.005
875,199.053
876,199.053
877,182.486
878,199.053
879,199.053
880,199.053
881,199.053
882,53.677
883,60.662
884,63.299
885,64.807
886,67.494
887,69.023
888,71.289
889,72.069
890,74.71
891,74.778
892,75.91
893,73.702
894,74.646
895,109.556
896,141.711
897,169.892
898,199.053
899,199.053
900,199.053
901,182.486
902,199.053
903,199.053
904,199.053
905,199.053
906,63.712
907,69.617
908,73.591
909,70.588
910,74.562
911,71.208
912,75.156
913,71.537
914,75.871
915,72.402
916,76.534
917,72.497
918,76.365
919,109.556
920,141.711
921,169.892
922,199.053
923,199.053
924,199.053
925,182.486
926,198.956
927,199.188
928,200.041
929,200.041
930,78.288
931,75.247
932,90.022
933,84.253
934,91.549
935,85.409
936,93.466
937,87.823
938,96.095
939,89.308
940,97.474
941,90.406
942,98.582
943,110.544
944,142.698
945,170.879
946,200.041
947,200.041
948,200.041
949,183.473
950,200.041
951,200.041
952,200.041
953,200.041
954,79.018
955,76.874
956,93.543
957,88.028
958,97.03
959,90.577
960,98.842
961,91.95
962,99.437
963,92.956
964,99.831
965,93.139
966,99.939
967,110.544
968,142.698
969,170.879
970,200.041
971,200.041
972,200.041
973,183.473
974,200.041
975,199.401
976,198.956
977,199.053
978,68.509
979,68.463
980,84.009
981,80.652
982,87.582
983,82.63
984,89.454
985,84.366
986,91.716
987,86.097
988,92.975
989,86.944
990,94.391
991,88.11
992,89.022
993,71.473
994,97.052
995,97.052
996,96.199
997,66.463
998,66.512
999,66.512
1000,66.512
1001,21.748
1002,22.307
1003,64.223
1004,71.061
1005,77.144
1006,74.589
1007,82.225
1008,78.89
1009,85.417
1010,79.505
1011,86.21
1012,80.885
1013,88.226
1014,81.719
1015,87.903
1016,59.448
1017,43.281
1018,35.544
1019,38.79
1020,29.293
1021,29.538
1022,23.597
1023,23.236
1024,21.123
1025,23.423
1026,23.539
1027,63.647
1028,68.625
1029,72.028
1030,68.939
1031,72.57
1032,69.644
1033,75.958
1034,75.707
1035,84.418
1036,80.379
1037,87.513
1038,81.78
1039,110.544
1040,135.524
1041,170.879
1042,200.041
1043,200.041
1044,200.041
1045,183.473
1046,200.041
1047,200.041
1048,200.041
1049,200.041
1050,80.93
1051,77.645
1052,93.077
1053,86.284
1054,93.278
1055,87.073
1056,95.77
1057,89.352
1058,97.701
1059,91.113
1060,99.151
1061,92.631
1062,99.751
1063,110.544
1064,135.524
1065,170.879
1066,200.041
1067,200.041
1068,200.041
1069,183.473
1070,200.041
1071,198.974
1072,199.053
1073,199.053
1074,66.918
1075,66.262
1076,81.789
1077,80.063
1078,87.538
1079,83.181
1080,89.593
1081,83.766
1082,89.889
1083,84.487
1084,91.415
1085,84.857
1086,90.918
1087,110.544
1088,135.524
1089,170.879
1090,200.041
1091,199.072
1092,199.053
1093,182.486
1094,199.053
1095,199.053
1096,199.053
1097,199.053
1098,59.686
1099,60.021
1100,71.225
1101,69.674
1102,73.635
1103,71.116
1104,75.107
1105,71.946
1106,75.575
1107,72.422
1108,76.448
1109,73.458
1110,78.078
1111,109.556
1112,134.537
1113,169.892
1114,199.053
1115,199.053
1116,199.053
1117,182.486
1118,199.053
1119,199.053
1120,199.053
1121,199.053
1122,53.677
1123,52.438
1124,61.391
1125,63.923
1126,67.58
1127,66.964
1128,70.148
1129,68.23
1130,72.024
1131,69.206
1132,72.468
1133,69.439
1134,73.368
1135,109.556
1136,134.537
1137,169.892
1138,199.053
1139,199.053
1140,199.053
1141,182.486
1142,199.053
1143,199.053
1144,199.053
1145,199.053
1146,53.677
1147,52.438
1148,61.583
1149,63.99
1150,66.253
1151,67.69
1152,68.928
1153,67.546
1154,68.088
1155,68.192
1156,71.676
1157,72.046
1158,74.547
1159,73.76
1160,80.86
1161,70.486
1162,96.065
1163,96.065
1164,96.065
1165,66.512
1166,66.512
1167,66.512
1168,66.512
1169,16.568
1170,16.568
1171,52.438
1172,59.612
1173,61.002
1174,62.473
1175,65.188
1176,65.232
1177,68.192
1178,66.986
1179,71.141
1180,69.526
1181,71.932
1182,70.006
1183,74.007
1184,41.929
1185,29.168
1186,24.146
1187,22.257
1188,17.149
1189,16.568
1190,16.568
1191,16.568
1192,16.568
1193,16.568
1194,16.568
1195,45.264
1196,59.704
1197,59.811
1198,61.265
1199,61.647
1200,61.641
1201,62.83
1202,64.461
1203,65.562
1204,66.345
1205,66.388
1206,67.462
1207,67.282
1208,38.88
1209,23.579
1210,22.82
1211,19.482
1212,18.003
1213,16.568
1214,16.568
1215,16.568
1216,16.568
1217,16.568
1218,16.568
1219,45.264
1220,59.612
1221,59.705
1222,61.533
1223,63.557
1224,62.601
1225,63.866
1226,62.92
1227,64.112
1228,63.331
1229,64.759
1230,63.501
1231,109.556
1232,134.537
1233,169.892
1234,199.053
1235,199.053
1236,199.053
1237,182.486
1238,199.053
1239,199.053
1240,199.053
1241,199.053
1242,53.677
1243,47.046
1244,62.8
1245,63.634
1246,63.897
1247,65.087
1248,64.402
1249,64.232
1250,62.926
1251,62.262
1252,61.73
1253,61.183
1254,59.612
1255,109.556
1256,127.363
1257,169.892
1258,199.053
1259,199.053
1260,199.053
1261,182.486
1262,199.053
1263,199.053
1264,199.053
1265,199.053
1266,53.677
1267,45.264
1268,63.812
1269,64.236
1270,67.439
1271,66.919
1272,72.193
1273,70.496
1274,75.88
1275,73.201
1276,79.37
1277,75.3
1278,81.925
1279,109.507
1280,127.217
1281,169.843
1282,199.053
1283,199.053
1284,199.053
1285,182.486
1286,199.053
1287,199.053
1288,199.053
1289,199.053
1290,59.629
1291,53.214
1292,73.679
1293,71.807
1294,77.349
1295,74.319
1296,80.627
1297,76.743
1298,82.991
1299,79.813
1300,86.93
1301,81.118
1302,88.581
1303,110.544
1304,128.35
1305,170.879
1306,199.023
1307,199.053
1308,199.053
1309,182.486
1310,199.053
1311,199.053
1312,199.053
1313,199.053
1314,54.631
1315,50.133
1316,67.808
1317,71.131
1318,71.604
1319,74.325
1320,74.769
1321,76.937
1322,75.897
1323,78.044
1324,76.954
1325,79.509
1326,78.111
1327,79.151
1328,73.686
1329,70.486
1330,96.065
1331,96.065
1332,96.065
1333,66.512
1334,66.512
1335,66.512
1336,66.512
1337,16.568
1338,16.568
1339,45.264
1340,59.612
1341,63.307
1342,64.338
1343,68.193
1344,67.407
1345,70.552
1346,69.057
1347,71.895
1348,69.244
1349,72.379
1350,70.518
1351,73.871
1352,34.248
1353,30.079
1354,27.401
1355,30.22
1356,26.693
1357,29.138
1358,26.293
1359,29.021
1360,25.964
1361,28.02
1362,25.2
1363,54.728
1364,64.645
1365,64.352
1366,63.259
1367,64.3
1368,63.257
1369,64.121
1370,63.076
1371,63.321
1372,63.345
1373,63.849
1374,64.883
1375,109.556
1376,127.363
1377,169.892
1378,199.053
1379,199.053
1380,199.053
1381,182.486
1382,199.053
1383,199.053
1384,199.053
1385,199.053
1386,53.677
1387,45.264
1388,62.135
1389,65.025
1390,66.999
1391,68.062
1392,69.793
1393,70.637
1394,72.054
1395,72.109
1396,74.181
1397,74.159
1398,76.965
1399,109.556
1400,127.363
1401,169.892
1402,199.053
1403,199.053
1404,199.053
1405,182.486
1406,199.053
1407,199.053
1408,199.053
1409,199.053
1410,53.677
1411,47.307
1412,64.737
1413,64.913
1414,68.166
1415,67.24
1416,70.831
1417,69.393
1418,72.638
1419,70.153
1420,73.216
1421,70.114
1422,73.308
1423,109.556
1424,127.363
1425,169.892
1426,199.053
1427,199.053
1428,199.053
1429,182.486
1430,199.053
1431,199.053
1432,199.053
1433,199.053
1434,56.056
1435,51.49
1436,65.835
1437,69.363
1438,67.875
1439,71.764
1440,69.374
1441,73.249
1442,70.406
1443,74.434
1444,71.214
1445,75.796
1446,72.637
1447,109.556
1448,127.363
1449,169.892
1450,199.053
1451,199.053
1452,199.053
1453,182.486
1454,199.053
1455,199.053
1456,199.053
1457,199.053
1458,53.677
1459,39.592
1460,63.544
1461,67.951
1462,67.522
1463,71.327
1464,69.946
1465,74.52
1466,72.57
1467,77.096
1468,73.106
1469,78.434
1470,75.843
1471,109.556
1472,120.189
1473,169.892
1474,199.053
1475,199.053
1476,199.053
1477,182.486
1478,199.053
1479,199.053
1480,199.053
1481,199.053
1482,53.677
1483,38.09
1484,59.612
1485,60.883
1486,62.368
1487,65.801
1488,66.163
1489,70.269
1490,68.919
1491,72.866
1492,71.46
1493,77.284
1494,74.897
1495,80.377
1496,66.512
1497,70.486
1498,96.065
1499,96.065
1500,96.065
1501,66.512
1502,66.512
1503,66.512
1504,66.512
1505,16.568
1506,16.568
1507,38.09
1508,61.788
1509,65.571
1510,65.721
1511,69.576
1512,67.931
1513,71.437
1514,69.328
1515,73.881
1516,71.445
1517,76.594
1518,73.783
1519,79.723
1520,31.96
1521,34.908
1522,28.568
1523,29.957
1524,24.503
1525,23.701
1526,20.05
1527,18.482
1528,16.595
1529,16.568
1530,17.741
1531,41.077
1532,66.069
1533,66.193
1534,70.073
1535,68.945
1536,73.229
1537,71.016
1538,75.358
1539,72.807
1540,78.036
1541,74.97
1542,80.436
1543,109.556
1544,120.189
1545,169.892
1546,199.053
1547,199.053
1548,199.053
1549,182.486
1550,199.053
1551,199.053
1552,199.053
1553,199.053
1554,53.677
1555,38.09
1556,61.494
1557,64.346
1558,64.699
1559,67.591
1560,66.992
1561,70.723
1562,69.083
1563,72.884
1564,70.744
1565,74.604
1566,71.24
1567,109.556
1568,120.189
1569,169.892
1570,199.053
1571,199.053
1572,199.053
1573,182.486
1574,199.053
1575,199.053
1576,199.053
1577,199.053
1578,53.677
1579,38.09
1580,59.612
1581,59.612
1582,61.533
1583,64.231
1584,64.627
1585,67.456
1586,65.899
1587,68.339
1588,66.253
1589,68.613
1590,66.484
1591,109.556
1592,120.189
1593,169.892
1594,199.053
1595,199.053
1596,199.053
1597,182.486
1598,199.053
1599,199.053
1600,199.053
1601,199.053
1602,55.749
1603,42.654
1604,63.31
1605,64.624
1606,63.533
1607,65.522
1608,64.35
1609,66.426
1610,65.546
1611,68.413
1612,66.633
1613,69.453
1614,67.196
1615,109.556
1616,120.189
1617,169.892
1618,199.053
1619,199.053
1620,199.053
1621,182.486
1622,199.053
1623,199.053
1624,199.053
1625,199.053
1626,53.677
1627,40.058
1628,63.91
1629,63.947
1630,66.645
1631,65.579
1632,68.424
1633,66.696
1634,70.171
1635,68.649
1636,73.311
1637,70.875
1638,75.959
1639,102.382
1640,120.189
1641,169.892
1642,199.053
1643,199.053
1644,199.053
1645,182.486
1646,199.053
1647,199.053
1648,199.053
1649,199.053
1650,60.141
1651,45.022
1652,70.336
1653,69.153
1654,72.752
1655,70.11
1656,73.976
1657,71.525
1658,75.859
1659,73.306
1660,78.511
1661,75.442
1662,81.15
1663,69.958
1664,66.415
1665,70.242
1666,95.87
1667,96.065
1668,96.065
1669,66.512
1670,66.512
1671,66.512
1672,66.512
1673,29.163
1674,28.5
1675,55.497
1676,74.489
1677,81.509
1678,77.468
1679,83.485
1680,80.222
1681,87.009
1682,81.677
1683,87.806
1684,81.799
1685,87.385
1686,81.444
1687,80.064
1688,38.065
1689,42.421
1690,35.468
1691,36.211
1692,29.776
1693,31.825
1694,26.781
1695,27.594
1696,23.951
1697,26.125
1698,24.403
1699,49.752
1700,69.917
1701,74.644
1702,72.464
1703,77.006
1704,73.73
1705,79.455
1706,76.266
1707,82.362
1708,78.748
1709,85.332
1710,110.544
1711,157.046
1712,170.879
1713,198.81
1714,199.053
1715,199.053
1716,182.486
1717,199.053
1718,199.053
1719,199.053
1720,199.053
1721,53.677
1722,17.866
1723,40.819
1724,66.34
1725,66.602
1726,71.162
1727,69.842
1728,74.533
1729,71.377
1730,76.614
1731,73.299
1732,78.754
1733,74.665
1734,109.556
1735,156.059
1736,169.892
1737,199.053
1738,199.053
1739,199.053
1740,182.486
1741,199.053
1742,199.053
1743,199.053
1744,199.053
1745,53.677
1746,16.568
1747,38.09
1748,59.612
1749,61.404
1750,63.635
1751,65.791
1752,67.174
1753,69.868
1754,70.117
1755,71.839
1756,71.93
1757,74.348
1758,109.556
1759,156.059
1760,169.892
1761,199.053
1762,199.053
1763,199.053
1764,182.486
1765,199.053
1766,199.053
1767,199.053
1768,199.053
1769,53.677
1770,16.568
1771,30.916
1772,59.612
1773,59.612
1774,61.343
1775,63.515
1776,62.778
1777,63.112
1778,63.455
1779,63.28
1780,64.084
1781,64.135
1782,109.556
1783,156.059
1784,169.892
1785,199.053
1786,199.053
1787,199.053
1788,182.486
1789,199.053
1790,199.053
1791,199.053
1792,199.053
1793,53.677
1794,16.568
1795,30.916
1796,59.612
1797,59.612
1798,59.612
1799,59.612
1800,59.612
1801,59.612
1802,64.267
1803,67.21
1804,68.945
1805,71.13
1806,109.556
1807,156.059
1808,169.892
1809,199.053
1810,199.053
1811,199.053
1812,182.486
1813,199.053
1814,199.053
1815,199.053
1816,199.053
1817,53.677
1818,16.568
1819,30.916
1820,61.245
1821,64.249
1822,64.404
1823,67.441
1824,66.551
1825,69.421
1826,67.471
1827,69.64
1828,67.57
1829,70.048
1830,67.852
1831,95.208
1832,70.486
1833,96.065
1834,96.065
1835,96.065
1836,66.512
1837,66.512
1838,66.512
1839,66.512
1840,28.766
1841,26.537
1842,28.145
1843,39.656
1844,70.873
1845,68.188
1846,71.149
1847,69.371
1848,72.907
1849,70.219
1850,73.918
1851,71.189
1852,74.933
1853,72.045
1854,75.538
1855,57.755
1856,32.59
1857,28.493
1858,30.664
1859,26.271
1860,26.405
1861,22.442
1862,22.306
1863,20.182
1864,20.887
1865,19.553
1866,18.5
1867,34.588
1868,64.893
1869,66.384
1870,68.402
1871,68.717
1872,69.324
1873,69.664
1874,71.259
1875,70.592
1876,71.842
1877,71.679
1878,109.556
1879,148.885
1880,169.892
1881,199.053
1882,199.053
1883,199.053
1884,182.486
1885,199.053
1886,199.053
1887,199.053
1888,199.053
1889,53.677
1890,16.568
1891,30.916
1892,59.612
1893,59.612
1894,61.419
1895,63.123
1896,64.904
1897,65.751
1898,67.21
1899,68.402
1900,70.191
1901,70.616
1902,109.556
1903,148.885
1904,169.892
1905,199.053
1906,199.053
1907,199.053
1908,182.486
1909,199.053
1910,199.053
1911,199.053
1912,199.053
1913,53.677
1914,16.568
1915,30.916
1916,59.612
1917,59.612
1918,59.612
1919,61.382
1920,63.314
1921,65.014
1922,66.179
1923,69
1924,69.047
1925,70.473
1926,109.556
1927,148.885
1928,169.892
1929,199.053
1930,199.053
1931,199.053
1932,182.486
1933,199.053
1934,199.053
1935,199.053
1936,199.053
1937,53.677
1938,16.568
1939,30.916
1940,59.612
1941,59.612
1942,59.612
1943,59.612
1944,59.612
1945,62.292
1946,64.082
1947,65.613
1948,67.673
1949,68.435
1950,109.556
1951,148.885
1952,169.892
1953,199.053
1954,199.053
1955,199.053
1956,182.486
1957,199.053
1958,199.053
1959,199.053
1960,199.053
1961,53.677
1962,16.568
1963,30.916
1964,59.612
1965,59.612
1966,59.612
1967,59.612
1968,59.612
1969,61.075
1970,62.773
1971,63.903
1972,64.402
1973,65.359
1974,109.556
1975,148.885
1976,169.892
1977,199.053
1978,199.053
1979,199.053
1980,182.486
1981,199.053
1982,199.053
1983,199.053
1984,199.053
1985,57.287
1986,21.415
1987,35.749
1988,64.956
1989,64.579
1990,64.804
1991,64.607
1992,64.91
1993,64.651
1994,64.973
1995,64.981
1996,65.535
1997,65.272
1998,65.633
1999,88.034
2000,70.486
2001,96.065
2002,96.065
2003,96.065
2004,66.512
2005,66.512
2006,66.512
2007,66.512
2008,16.568
2009,16.568
2010,16.568
2011,30.916
2012,59.612
2013,59.612
2014,59.612
2015,59.612
2016,59.612
2017,62.476
2018,63.51
2019,64.709
2020,66.237
2021,66.94
2022,68.489
2023,47.072
2024,24.172
2025,19.572
2026,17.568
2027,16.568
2028,16.568
2029,16.568
2030,16.568
2031,16.568
2032,16.568
2033,16.568
2034,16.568
2035,30.916
2036,59.612
2037,59.612
2038,59.612
2039,59.612
2040,59.612
2041,59.694
2042,61.02
2043,61.126
2044,62.634
2045,62.254
2046,109.556
2047,141.711
2048,169.892
2049,199.053
2050,199.053
2051,199.053
2052,182.486
2053,199.053
2054,199.053
2055,199.053
2056,199.053
2057,53.677
2058,16.568
2059,30.916
2060,59.612
2061,59.612
2062,59.612
2063,59.612
2064,61.249
2065,61.78
2066,63.168
2067,63.829
2068,63.653
2069,63.83
2070,109.556
2071,141.711
2072,169.892
2073,199.053
2074,199.053
2075,199.053
2076,182.486
2077,199.053
2078,199.053
2079,199.053
2080,199.053
2081,53.677
2082,16.568
2083,23.742
2084,59.612
2085,59.612
2086,59.612
2087,59.612
2088,59.612
2089,59.612
2090,59.612
2091,59.612
2092,59.612
2093,60.785
2094,109.556
2095,141.711
2096,169.892
2097,199.053
2098,199.053
2099,199.053
2100,182.486
2101,199.053
2102,199.053
2103,199.053
2104,199.053
2105,53.677
2106,16.568
2107,23.742
2108,59.612
2109,59.612
2110,59.612
2111,59.612
2112,59.612
2113,59.612
2114,59.612
2115,60.389
2116,61.253
2117,61.685
2118,109.556
2119,141.711
2120,169.892
2121,199.053
2122,199.053
2123,199.053
2124,182.486
2125,199.053
2126,199.053
2127,199.053
2128,199.053
2129,53.677
2130,16.568
2131,26.495
2132,67.415
2133,67.371
2134,72.512
2135,70.915
2136,76.806
2137,73.801
2138,79.657
2139,75.462
2140,81.216
2141,76.822
2142,109.556
2143,141.565
2144,169.599
2145,198.761
2146,198.81
2147,198.956
2148,182.486
2149,199.053
2150,199.053
2151,199.053
2152,199.053
2153,66.513
2154,28.949
2155,41.405
2156,74.692
2157,80.717
2158,77.108
2159,84.063
2160,79.481
2161,84.622
2162,79.559
2163,84.67
2164,78.982
2165,83.718
2166,78.949
2167,89.022
2168,70.407
2169,95.967
2170,96.065
2171,96.065
2172,66.512
2173,66.512
2174,66.512
2175,66.512
2176,16.568
2177,16.568
2178,16.568
2179,27.158
2180,64.171
2181,68.586
2182,68.748
2183,74.382
2184,71.96
2185,76.919
2186,73.753
2187,78.863
2188,74.929
2189,80.745
2190,77.866
2191,56.567
2192,34.808
2193,35.124
2194,27.475
2195,27.053
2196,22.013
2197,21.186
2198,18.564
2199,16.568
2200,16.568
2201,16.568
2202,16.568
2203,25.43
2204,64.287
2205,69.146
2206,68.381
2207,71.945
2208,70.595
2209,75.2
2210,72.186
2211,76.042
2212,73.178
2213,77.984
2214,109.556
2215,134.537
2216,169.892
2217,199.053
2218,199.053
2219,199.053
2220,182.486
2221,199.053
2222,199.053
2223,199.053
2224,199.053
2225,53.677
2226,16.568
2227,23.742
2228,59.612
2229,59.612
2230,59.612
2231,59.612
2232,59.612
2233,59.612
2234,59.612
2235,59.612
2236,62.771
2237,64.536
2238,109.556
2239,134.537
2240,169.892
2241,199.053
2242,199.053
2243,199.053
2244,182.486
2245,199.053
2246,199.053
2247,199.053
2248,199.053
2249,53.677
2250,16.568
2251,25.759
2252,64.662
2253,67.436
2254,68.715
2255,70.781
2256,71.549
2257,73.827
2258,74.244
2259,76.369
2260,76.124
2261,76.798
2262,109.556
2263,134.537
2264,169.892
2265,199.053
2266,199.053
2267,199.053
2268,182.486
2269,199.053
2270,199.053
2271,199.053
2272,199.053
2273,53.677
2274,16.568
2275,23.742
2276,59.612
2277,59.612
2278,61.01
2279,62.569
2280,63.206
2281,64.818
2282,64.993
2283,66.227
2284,66.817
2285,67.674
2286,109.556
2287,134.537
2288,169.892
2289,199.053
2290,199.053
2291,199.053
2292,182.486
2293,199.053
2294,199.053
2295,199.053
2296,199.053
2297,53.677
2298,16.568
2299,23.742
2300,59.612
2301,59.612
2302,59.612
2303,59.612
2304,59.612
2305,59.612
2306,60.786
2307,60.939
2308,61.172
2309,60.604
2310,109.556
2311,134.537
2312,169.892
2313,199.053
2314,199.053
2315,199.053
2316,182.486
2317,199.053
2318,199.053
2319,199.053
2320,199.053
2321,53.677
2322,16.568
2323,23.742
2324,59.612
2325,59.612
2326,59.612
2327,59.612
2328,59.612
2329,59.612
2330,59.612
2331,59.612
2332,59.612
2333,59.612
2334,61.203
2335,80.86
2336,70.486
2337,96.065
2338,96.065
2339,96.065
2340,66.512
2341,66.512
2342,66.512
2343,66.512
2344,17.958
2345,19.588
2346,20.666
2347,30.196
2348,69.422
2349,71.377
2350,73.789
2351,73.801
2352,74.027
2353,71.835
2354,72.263
2355,72.023
2356,74.301
2357,75.267
2358,78.544
2359,49.299
2360,35.832
2361,32.602
2362,31.404
2363,27.443
2364,25.315
2365,22.636
2366,20.835
2367,18.151
2368,16.673
2369,16.677
2370,17.314
2371,27.065
2372,65.403
2373,68.518
2374,69.024
2375,71.237
2376,71.631
2377,73.774
2378,73.375
2379,75.79
2380,74.814
2381,77.403
2382,109.556
2383,127.363
2384,169.892
2385,199.053
2386,199.053
2387,199.053
2388,182.486
2389,199.053
2390,199.053
2391,199.053
2392,199.053
2393,53.677
2394,16.568
2395,23.742
2396,59.612
2397,59.612
2398,61.369
2399,63.3
2400,65.709
2401,64.896
2402,67.951
2403,66.532
2404,68.946
2405,66.507
2406,109.556
2407,127.363
2408,169.892
2409,199.053
2410,199.053
2411,199.053
2412,182.486
2413,199.053
2414,199.053
2415,199.053
2416,199.053
2417,53.677
2418,16.568
2419,16.568
2420,59.612
2421,59.612
2422,59.612
2423,59.612
2424,59.612
2425,59.612
2426,59.612
2427,59.612
2428,59.612
2429,59.612
2430,109.556
2431,127.363
2432,169.892
2433,199.053
2434,199.053
2435,199.053
2436,182.486
2437,199.053
2438,199.053
2439,199.053
2440,199.053
2441,53.677
2442,16.568
2443,16.568
2444,59.612
2445,59.612
2446,59.612
2447,59.612
2448,59.612
2449,59.612
2450,59.612
2451,59.612
2452,59.612
2453,59.612
2454,109.556
2455,127.363
2456,169.892
2457,199.053
2458,199.053
2459,199.053
2460,182.486
2461,199.053
2462,199.053
2463,200.121
2464,201.432
2465,53.677
2466,16.568
2467,16.568
2468,59.612
2469,59.612
2470,59.612
2471,59.612
2472,59.612
2473,59.612
2474,59.612
2475,59.612
2476,59.612
2477,59.612
2478,109.556
2479,127.363
2480,169.892
2481,199.053
2482,199.053
2483,199.053
2484,182.486
2485,199.053
2486,199.644
2487,201.322
2488,202.317
2489,53.677
2490,16.568
2491,16.568
2492,59.612
2493,59.612
2494,59.612
2495,59.612
2496,59.612
2497,59.612
2498,59.612
2499,59.612
2500,59.612
2501,59.612
2502,59.612
2503,73.686
2504,70.486
2505,96.065
2506,96.065
2507,96.065
2508,66.512
2509,66.512
2510,66.512
2511,66.512
2512,16.568
2513,16.568
2514,16.568
2515,16.568
2516,59.612
2517,59.612
2518,59.612
2519,59.612
2520,59.612
2521,59.612
2522,59.612
2523,59.612
2524,59.612
2525,59.612
2526,59.612
2527,23.742
2528,16.568
2529,16.568
2530,16.568
2531,16.568
2532,16.568
2533,16.568
2534,16.568
2535,16.568
2536,16.568
2537,16.568
2538,16.568
2539,16.568
2540,59.612
2541,59.612
2542,59.612
2543,59.612
2544,59.612
2545,59.612
2546,59.612
2547,59.612
2548,59.612
2549,60.774
2550,109.556
2551,120.189
2552,169.892
2553,199.053
2554,199.053
2555,199.053
2556,182.486
2557,199.053
2558,199.053
2559,199.053
2560,199.053
2561,53.677
2562,16.568
2563,16.568
2564,59.612
2565,59.612
2566,59.612
2567,59.612
2568,59.612
2569,59.612
2570,59.612
2571,59.612
2572,59.612
2573,61.218
2574,109.556
2575,120.189
2576,169.892
2577,199.053
2578,199.053
2579,199.053
2580,182.486
2581,199.053
2582,199.053
2583,199.053
2584,199.053
2585,53.677
2586,16.568
2587,16.568
2588,59.612
2589,59.612
2590,59.612
2591,59.612
2592,59.612
2593,59.612
2594,59.612
2595,59.612
2596,59.612
2597,60.419
2598,109.556
2599,120.189
2600,169.892
2601,199.053
2602,199.053
2603,199.053
2604,182.486
2605,199.053
2606,199.053
2607,199.053
2608,199.053
2609,53.677
2610,16.568
2611,16.568
2612,59.612
2613,59.612
2614,59.612
2615,59.612
2616,59.612
2617,59.612
2618,59.612
2619,59.612
2620,59.612
2621,59.612
2622,109.556
2623,120.189
2624,169.892
2625,199.053
2626,199.053
2627,199.053
2628,182.486
2629,199.053
2630,199.407
2631,200.951
2632,201.677
2633,53.677
2634,16.568
2635,16.568
2636,59.612
2637,59.612
2638,59.612
2639,59.612
2640,59.612
2641,59.612
2642,59.612
2643,59.612
2644,59.612
2645,59.612
2646,109.556
2647,120.189
2648,169.892
2649,199.053
2650,199.053
2651,199.053
2652,182.486
2653,199.053
2654,199.232
2655,200.149
2656,200.258
2657,53.677
2658,16.568
2659,16.568
2660,59.612
2661,59.612
2662,59.612
2663,59.612
2664,59.612
2665,59.612
2666,61.327
2667,63.606
2668,63.111
2669,65.174
2670,63.81
2671,66.512
2672,70.486
2673,96.065
2674,96.065
2675,96.065
2676,66.512
2677,66.512
2678,66.512
2679,66.512
2680,16.568
2681,16.568
2682,16.568
2683,16.568
2684,59.612
2685,59.612
2686,59.612
2687,60.766
2688,62.186
2689,63.197
2690,64.271
2691,64.764
2692,65.96
2693,66.187
2694,66.254
2695,21.341
2696,17.859
2697,16.568
2698,16.568
2699,16.568
2700,16.568
2701,16.568
2702,16.568
2703,16.568
2704,16.568
2705,16.568
2706,16.568
2707,16.568
2708,59.612
2709,59.612
2710,59.612
2711,59.612
2712,59.612
2713,59.612
2714,59.612
2715,60.47
2716,62.088
2717,62.35
2718,109.556
2719,120.189
2720,169.892
2721,199.053
2722,199.053
2723,199.053
2724,182.486
2725,199.053
2726,199.053
2727,199.053
2728,199.053
2729,53.677
2730,16.568
2731,16.568
2732,52.438
2733,59.612
2734,59.612
2735,59.612
2736,59.612
2737,60.916
2738,62.552
2739,65.589
2740,65.34
2741,69.271
2742,109.556
2743,120.189
2744,169.892
2745,199.053
2746,199.053
2747,199.053
2748,182.486
2749,199.053
2750,199.053
2751,199.053
2752,199.053
2753,53.677
2754,16.568
2755,16.568
2756,52.438
2757,59.612
2758,63.704
2759,64.11
2760,67.124
2761,66.15
2762,69.861
2763,68.449
2764,71.682
2765,69.236
2766,102.382
2767,120.189
2768,169.892
2769,199.053
2770,199.053
2771,199.053
2772,182.486
2773,199.053
2774,199.053
2775,199.053
2776,199.053
2777,53.677
2778,16.568
2779,16.568
2780,52.438
2781,59.612
2782,59.612
2783,61.051
2784,63.188
2785,66.906
2786,66.632
2787,70.076
2788,67.931
2789,71.888
2790,102.382
2791,120.189
2792,169.892
2793,199.053
2794,199.053
2795,199.053
2796,182.486
2797,199.053
2798,199.053
2799,199.053
2800,199.053
2801,53.677
2802,16.568
2803,16.568
2804,52.438
2805,59.612
2806,59.612
2807,59.612
2808,61.5
2809,64.439
2810,64.092
2811,65.426
2812,64.247
2813,66.971
2814,102.382
2815,120.189
2816,169.892
2817,199.053
2818,199.053
2819,199.053
2820,182.486
2821,199.053
2822,199.053
2823,199.053
2824,199.053
2825,53.677
2826,16.568
2827,16.568
2828,52.438
2829,59.612
2830,59.612
2831,59.612
2832,59.612
2833,59.612
2834,59.612
2835,59.612
2836,59.612
2837,60.866
2838,54.881
2839,66.512
2840,70.486
2841,96.065
2842,96.065
2843,96.065
2844,66.512
2845,66.512
2846,66.512
2847,66.512
2848,16.568
2849,16.568
2850,16.568
2851,16.568
2852,52.438
2853,59.612
2854,59.612
2855,59.612
2856,59.612
2857,59.612
2858,59.612
2859,60.487
2860,60.664
2861,61.557
2862,54.527
2863,18.035
2864,17.814
2865,16.568
2866,16.568
2867,16.568
2868,16.568
2869,16.568
2870,16.568
2871,16.568
2872,16.568
2873,16.568
2874,16.568
2875,16.568
2876,52.438
2877,59.612
2878,59.612
2879,59.612
2880,59.612
2881,59.612
2882,59.612
2883,59.612
2884,59.612
2885,59.612
2886,102.382
2887,120.189
2888,169.892
2889,199.053
2890,199.053
2891,199.053
2892,182.486
2893,199.053
2894,199.053
2895,199.053
2896,199.053
2897,53.677
2898,16.568
2899,16.568
2900,52.438
2901,59.612
2902,59.612
2903,59.612
2904,59.612
2905,59.612
2906,59.612
2907,59.612
2908,59.612
2909,59.612
2910,102.382
2911,120.189
2912,169.892
2913,199.053
2914,199.053
2915,199.053
2916,182.486
2917,199.053
2918,199.053
2919,199.053
2920,199.053
2921,53.677
2922,16.568
2923,16.568
2924,52.438
2925,59.612
2926,59.612
2927,59.612
2928,59.612
2929,59.612
2930,59.612
2931,59.612
2932,59.612
2933,59.612
2934,102.382
2935,120.189
2936,169.892
2937,199.053
2938,199.053
2939,199.053
2940,182.486
2941,199.053
2942,199.053
2943,199.263
2944,199.976
2945,53.677
2946,16.568
2947,16.568
2948,52.438
2949,59.612
2950,59.612
2951,59.612
2952,59.612
2953,59.612
2954,59.612
2955,59.612
2956,59.612
2957,59.612
2958,102.382
2959,120.189
2960,169.892
2961,199.053
2962,199.053
2963,199.053
2964,182.486
2965,199.053
2966,199.053
2967,199.053
2968,199.053
2969,53.677
2970,16.568
2971,16.568
2972,52.438
2973,59.612
2974,59.612
2975,59.612
2976,59.612
2977,59.612
2978,59.612
2979,59.612
2980,59.612
2981,59.612
2982,102.382
2983,120.189
2984,169.892
2985,199.053
2986,199.053
2987,199.053
2988,182.486
2989,199.053
2990,199.053
2991,199.311
2992,200.39
2993,53.677
2994,16.568
2995,16.568
2996,52.438
2997,59.612
2998,59.612
2999,59.612
3000,59.612
3001,59.612
3002,59.612
3003,59.612
3004,59.612
3005,59.612
3006,45.264
3007,66.512
3008,70.486
3009,96.065
3010,96.065
3011,96.065
3012,66.512
3013,66.512
3014,66.512
3015,66.512
3016,16.568
3017,16.568
3018,16.568
3019,16.568
3020,52.438
3021,59.612
3022,59.612
3023,59.612
3024,59.612
3025,59.612
3026,59.612
3027,59.612
3028,59.612
3029,59.612
3030,45.264
3031,16.568
3032,16.568
3033,16.568
3034,16.568
3035,16.568
3036,16.568
3037,16.568
3038,16.568
3039,16.568
3040,16.568
3041,16.568
3042,16.568
3043,16.568
3044,45.264
3045,59.612
3046,59.612
3047,59.612
3048,59.612
3049,59.612
3050,59.612
3051,59.612
3052,59.612
3053,59.612
3054,95.208
3055,120.189
3056,169.892
3057,199.053
3058,199.053
3059,199.053
3060,182.486
3061,199.053
3062,199.053
3063,199.053
3064,199.053
3065,53.677
3066,16.568
3067,16.568
3068,45.264
3069,59.612
3070,59.612
3071,59.612
3072,59.612
3073,59.612
3074,59.612
3075,59.612
3076,60.366
3077,61.6
3078,95.208
3079,120.189
3080,169.892
3081,199.053
3082,199.053
3083,199.053
3084,182.486
3085,199.053
3086,199.053
3087,199.053
3088,199.053
3089,53.677
3090,16.568
3091,16.568
3092,45.264
3093,59.612
3094,59.612
3095,59.612
3096,59.612
3097,59.612
3098,59.612
3099,59.612
3100,59.612
3101,59.612
3102,95.208
3103,120.189
3104,169.892
3105,199.053
3106,199.053
3107,199.053
3108,182.486
3109,199.053
3110,199.053
3111,199.053
3112,199.053
3113,53.677
3114,16.568
3115,16.568
3116,45.264
3117,59.612
3118,59.612
3119,59.612
3120,59.612
3121,59.612
3122,59.612
3123,59.612
3124,59.612
3125,59.612
3126,95.208
3127,120.189
3128,169.892
3129,199.053
3130,199.053
3131,199.053
3132,182.486
3133,199.053
3134,199.126
3135,200.814
3136,201.844
3137,53.677
3138,16.568
3139,16.568
3140,45.264
3141,59.612
3142,59.612
3143,59.612
3144,59.612
3145,59.612
3146,59.612
3147,59.612
3148,59.612
3149,59.612
3150,95.208
3151,120.189
3152,169.892
3153,199.053
3154,199.053
3155,200.642
3156,185.807
3157,204.6
3158,210.321
3159,223.312
3160,226.546
3161,53.677
3162,16.568
3163,16.568
3164,45.264
3165,59.612
3166,59.612
3167,59.612
3168,59.612
3169,59.612
3170,59.612
3171,59.612
3172,59.612
3173,59.612
3174,45.264
3175,66.512
3176,70.486
3177,96.065
3178,96.065
3179,96.065
3180,66.512
3181,66.512
3182,67.039
3183,68.491
3184,16.568
3185,16.568
3186,16.568
3187,16.568
3188,45.264
3189,59.612
3190,59.612
3191,59.612
3192,59.612
3193,59.612
3194,59.612
3195,59.612
3196,59.612
3197,59.612
3198,45.264
3199,16.568
3200,16.568
3201,16.568
3202,16.568
3203,16.568
3204,16.568
3205,16.568
3206,16.568
3207,16.568
3208,16.568
3209,16.568
3210,16.568
3211,16.568
3212,45.264
3213,59.612
3214,59.612
3215,59.612
3216,59.612
3217,59.612
3218,59.612
3219,59.612
3220,59.612
3221,59.612
3222,95.208
3223,120.189
3224,169.892
3225,199.053
3226,200.892
3227,203.422
3228,188.101
3229,209.399
3230,221.14
3231,232.502
3232,235.263
3233,53.677
3234,16.568
3235,16.568
3236,45.264
3237,59.612
3238,59.612
3239,59.612
3240,59.612
3241,59.612
3242,59.612
3243,59.612
3244,59.612
3245,59.612
3246,95.208
3247,120.189
3248,169.892
3249,199.053
3250,199.053
3251,199.053
3252,182.504
3253,200.635
3254,202.237
3255,203.552
3256,204.036
3257,53.677
3258,16.568
3259,16.568
3260,45.264
3261,59.612
3262,59.612
3263,59.612
3264,59.612
3265,59.612
3266,59.612
3267,59.612
3268,59.612
3269,59.612
3270,95.208
3271,120.189
3272,169.892
3273,199.053
3274,199.053
3275,199.053
3276,182.486
3277,199.053
3278,199.053
3279,199.053
3280,199.053
3281,53.677
3282,16.568
3283,16.568
3284,45.264
3285,59.612
3286,59.612
3287,59.612
3288,59.612
3289,59.612
3290,59.612
3291,59.612
3292,59.612
3293,59.612
3294,88.034
3295,120.189
3296,169.892
3297,199.053
3298,199.053
3299,199.053
3300,182.486
3301,199.053
3302,199.053
3303,199.053
3304,199.053
3305,53.677
3306,16.568
3307,16.568
3308,45.264
3309,59.612
3310,59.612
3311,59.612
3312,59.612
3313,59.612
3314,59.612
3315,59.612
3316,59.612
3317,59.612
3318,88.034
3319,120.189
3320,169.892
3321,199.053
3322,199.053
3323,199.053
3324,182.486
3325,199.054
3326,200.094
3327,201.09
3328,201.303
3329,53.677
3330,16.568
3331,16.568
3332,45.264
3333,59.612
3334,59.612
3335,59.612
3336,59.612
3337,59.612
3338,59.612
3339,59.612
3340,59.612
3341,59.612
3342,38.09
3343,66.512
3344,70.486
3345,96.065
3346,96.065
3347,96.065
3348,66.512
3349,66.512
3350,66.512
3351,66.512
3352,16.568
3353,16.568
3354,16.568
3355,16.568
3356,45.264
3357,59.612
3358,59.612
3359,59.612
3360,59.612
3361,59.612
3362,59.612
3363,59.612
3364,59.612
3365,59.612
3366,38.09
3367,16.568
3368,16.568
3369,16.568
3370,16.568
3371,16.568
3372,16.568
3373,16.568
3374,16.568
3375,16.568
3376,16.568
3377,16.568
3378,16.568
3379,16.568
3380,38.09
3381,59.612
3382,59.612
3383,59.612
3384,59.612
3385,59.612
3386,59.612
3387,59.612
3388,59.612
3389,59.612
3390,88.034
3391,120.189
3392,169.892
3393,199.053
3394,199.053
3395,200.238
3396,185.452
3397,203.425
3398,205.062
3399,205.987
3400,204.872
3401,53.677
3402,16.568
3403,16.568
3404,38.09
3405,59.612
3406,59.612
3407,59.612
3408,59.612
3409,59.612
3410,59.612
3411,59.612
3412,59.612
3413,59.612
3414,88.034
3415,120.189
3416,169.892
3417,199.053
3418,199.053
3419,199.148
3420,182.994
3421,201.009
3422,201.743
3423,202.085
3424,201.776
3425,53.677
3426,16.568
3427,16.568
3428,38.09
3429,59.612
3430,59.612
3431,59.612
3432,59.612
3433,59.612
3434,59.612
3435,59.612
3436,59.612
3437,59.612
3438,88.034
3439,120.189
3440,169.892
3441,199.053
3442,199.053
3443,199.053
3444,182.486
3445,199.053
3446,199.124
3447,200.571
3448,201.28
3449,53.677
3450,16.568
3451,16.568
3452,38.09
3453,59.612
3454,59.612
3455,59.612
3456,59.612
3457,59.612
3458,59.612
3459,59.612
3460,59.612
3461,59.612
3462,88.034
3463,120.189
3464,169.892
3465,199.053
3466,199.053
3467,199.053
3468,182.486
3469,199.053
3470,199.111
3471,200.346
3472,201.053
3473,53.677
3474,16.568
3475,16.568
3476,38.09
3477,59.612
3478,59.612
3479,59.612
3480,59.612
3481,59.612
3482,59.612
3483,59.612
3484,59.612
3485,59.612
3486,88.034
3487,120.189
3488,169.892
3489,199.053
3490,199.053
3491,199.053
3492,183.076
3493,201.354
3494,202.445
3495,203.261
3496,204.08
3497,53.677
3498,16.568
3499,16.568
3500,38.09
3501,59.612
3502,59.612
3503,59.612
3504,59.612
3505,59.612
3506,59.612
3507,59.612
3508,59.612
3509,59.612
3510,38.09
3511,66.512
3512,70.486
3513,96.065
3514,96.065
3515,96.065
3516,66.512
3517,66.512
3518,67.06
3519,68.349
3520,16.568
3521,16.568
3522,16.568
3523,16.568
3524,38.09
3525,59.612
3526,59.612
3527,59.612
3528,59.612
3529,59.612
3530,59.612
3531,59.612
3532,59.612
3533,59.612
3534,38.09
3535,16.568
3536,16.568
3537,16.568
3538,16.568
3539,16.568
3540,16.568
3541,16.568
3542,16.568
3543,16.568
3544,16.568
3545,16.568
3546,16.568
3547,16.568
3548,38.09
3549,59.612
3550,59.612
3551,59.612
3552,59.612
3553,59.612
3554,59.612
3555,59.612
3556,59.612
3557,59.612
3558,38.09
3559,16.568
3560,16.568
3561,16.568
3562,16.568
3563,16.568
3564,16.568
3565,16.568
3566,16.568
3567,16.568
3568,16.568
3569,16.568
3570,16.568
3571,16.568
3572,38.09
3573,59.612
3574,59.612
3575,59.612
3576,59.612
3577,59.612
3578,59.612
3579,59.612
3580,59.612
3581,59.612
3582,88.034
3583,120.189
3584,169.892
3585,199.053
3586,199.053
3587,199.99
3588,185.679
3589,204.87
3590,207.529
3591,219.251
3592,226.51
3593,53.677
3594,16.568
3595,16.568
3596,38.09
3597,59.612
3598,59.612
3599,59.612
3600,59.612
3601,59.612
3602,59.612
3603,59.612
3604,59.612
3605,59.612
3606,88.034
3607,120.189
3608,169.892
3609,199.053
3610,199.762
3611,201.5
3612,186.087
3613,205.502
3614,208.554
3615,220.265
3616,226.472
3617,53.677
3618,16.568
3619,16.568
3620,38.09
3621,59.612
3622,59.612
3623,59.612
3624,59.612
3625,59.612
3626,59.612
3627,59.612
3628,59.612
3629,59.612
3630,88.034
3631,120.189
3632,169.892
3633,199.053
3634,199.733
3635,201.24
3636,186.029
3637,204.873
3638,206.946
3639,214.974
3640,218.474
3641,53.677
3642,16.568
3643,16.568
3644,38.09
3645,59.612
3646,59.612
3647,59.612
3648,59.612
3649,59.612
3650,59.612
3651,59.612
3652,59.612
3653,59.612
3654,88.034
3655,120.189
3656,170.109
3657,203.452
3658,206.808
3659,219.417
3660,221.907
3661,248.583
3662,257.636
3663,267.967
3664,268.146
3665,94.217
3666,43.769
3667,30.406
3668,38.09
3669,59.612
3670,59.612
3671,59.612
3672,59.612
3673,59.612
3674,59.612
3675,59.612
3676,59.612
3677,59.612
3678,38.09
3679,66.512
3680,70.486
3681,96.065
3682,96.482
3683,97.596
3684,67.536
3685,69.176
3686,70.315
3687,69.831
3688,16.568
3689,16.568
3690,16.568
3691,16.568
3692,38.09
3693,59.612
3694,59.612
3695,59.612
3696,59.612
3697,59.612
3698,59.612
3699,59.612
3700,59.612
3701,59.612
3702,38.09
3703,16.568
3704,16.568
3705,16.568
3706,16.568
3707,16.568
3708,16.568
3709,16.568
3710,16.568
3711,16.568
3712,16.568
3713,16.568
3714,16.568
3715,16.568
3716,38.09
3717,59.612
3718,59.612
3719,59.612
3720,59.612
3721,59.612
3722,59.612
3723,59.612
3724,59.612
3725,59.612
3726,88.034
3727,120.189
3728,169.892
3729,199.329
3730,201.964
3731,204.058
3732,188.16
3733,211.393
3734,225.204
3735,230.412
3736,237.422
3737,66.267
3738,16.568
3739,16.568
3740,38.09
3741,59.612
3742,59.612
3743,59.612
3744,59.612
3745,59.612
3746,59.612
3747,59.612
3748,59.612
3749,59.612
3750,88.034
3751,120.189
3752,169.892
3753,199.26
3754,199.904
3755,200.315
3756,183.586
3757,200.991
3758,202.285
3759,204.319
3760,205.388
3761,53.677
3762,16.568
3763,16.568
3764,30.916
3765,59.612
3766,59.612
3767,59.612
3768,59.612
3769,59.612
3770,59.612
3771,59.612
3772,59.612
3773,59.612
3774,88.034
3775,120.189
3776,169.892
3777,199.679
3778,203.148
3779,207.623
3780,204.848
3781,241.098
3782,253.909
3783,263.122
3784,243.337
3785,53.677
3786,16.568
3787,16.568
3788,30.916
3789,59.612
3790,59.612
3791,59.612
3792,59.612
3793,59.612
3794,59.612
3795,59.612
3796,59.612
3797,59.612
3798,88.034
3799,120.233
3800,173.226
3801,204.998
3802,205.572
3803,206.837
3804,191.11
3805,223.974
3806,243.016
3807,257.848
3808,261.495
3809,71.122
3810,35.844
3811,42.096
3812,37.199
3813,59.612
3814,59.612
3815,59.612
3816,59.612
3817,59.612
3818,59.612
3819,59.612
3820,59.612
3821,59.612
3822,88.034
3823,120.189
3824,172.284
3825,203.9
3826,206.026
3827,210.428
3828,206.917
3829,234.537
3830,242.705
3831,248.824
3832,255.059
3833,70.744
3834,38.8
3835,22.795
3836,30.916
3837,59.612
3838,59.612
3839,59.612
3840,59.612
3841,59.612
3842,59.612
3843,59.612
3844,59.612
3845,59.612
3846,38.09
3847,66.512
3848,70.486
3849,96.244
3850,98.539
3851,100.698
3852,79.362
3853,92.772
3854,105.556
3855,114.476
3856,46.047
3857,53.318
3858,49.347
3859,34.223
3860,31.7
3861,59.612
3862,59.612
3863,59.612
3864,59.612
3865,59.612
3866,59.612
3867,59.612
3868,59.612
3869,59.612
3870,38.09
3871,16.568
3872,16.568
3873,16.568
3874,16.568
3875,16.568
3876,16.568
3877,16.568
3878,16.568
3879,16.568
3880,16.568
3881,16.568
3882,16.568
3883,16.568
3884,30.916
3885,59.612
3886,59.612
3887,59.612
3888,59.612
3889,59.612
3890,59.612
3891,59.612
3892,59.612
3893,59.612
3894,88.034
3895,120.189
3896,169.892
3897,199.053
3898,199.394
3899,201.513
3900,185.879
3901,203.784
3902,207.49
3903,218.126
3904,223.667
3905,53.677
3906,16.568
3907,16.568
3908,30.916
3909,59.612
3910,59.612
3911,59.612
3912,59.612
3913,59.612
3914,59.612
3915,59.612
3916,59.612
3917,59.612
3918,88.034
3919,120.189
3920,169.892
3921,199.365
3922,201.046
3923,203.271
3924,188.039
3925,214.407
3926,224.894
3927,230.035
3928,232.982
3929,53.677
3930,16.568
3931,16.568
3932,30.916
3933,59.612
3934,59.612
3935,59.612
3936,59.612
3937,59.612
3938,59.612
3939,59.612
3940,59.612
3941,59.612
3942,88.034
3943,120.189
3944,169.892
3945,199.258
3946,201.175
3947,203.203
3948,187.503
3949,205.477
3950,215.536
3951,219.838
3952,223.065
3953,53.677
3954,16.568
3955,16.568
3956,30.916
3957,59.612
3958,59.612
3959,59.612
3960,59.612
3961,59.612
3962,59.612
3963,59.612
3964,59.612
3965,59.612
3966,88.034
3967,120.189
3968,169.892
3969,199.053
3970,199.414
3971,200.421
3972,184.185
3973,202.228
3974,203.252
3975,202.59
3976,202.15
3977,53.677
3978,16.568
3979,16.568
3980,30.916
3981,59.612
3982,59.612
3983,59.612
3984,59.612
3985,59.612
3986,59.612
3987,59.612
3988,59.612
3989,59.612
3990,88.034
3991,120.189
3992,169.892
3993,199.053
3994,199.899
3995,201.857
3996,186.429
3997,204.142
3998,203.605
3999,203.267
4000,204.317
4001,53.677
4002,16.568
4003,16.568
4004,30.916
4005,59.612
4006,59.612
4007,59.612
4008,59.612
4009,59.612
4010,59.612
4011,59.612
4012,59.612
4013,59.612
4014,38.09
4015,66.512
4016,70.486
4017,96.065
4018,96.065
4019,96.878
4020,68.555
4021,71.169
4022,81.654
4023,90.126
4024,16.568
4025,24.657
4026,26.968
4027,18.609
4028,30.916
4029,59.612
4030,59.612
4031,59.612
4032,59.612
4033,59.612
4034,59.612
4035,59.612
4036,59.612
4037,59.612
4038,38.09
4039,16.568
4040,16.568
4041,16.568
4042,16.568
4043,16.568
4044,16.568
4045,16.568
4046,43.533
4047,55.567
4048,59.059
4049,63.454
4050,60.813
4051,51.342
4052,38.751
4053,59.612
4054,59.612
4055,59.612
4056,59.612
4057,59.612
4058,59.612
4059,59.612
4060,59.612
4061,59.612
4062,88.034
4063,120.521
4064,174.382
4065,208.248
4066,229.488
4067,250.738
4068,243.453
4069,268.52
4070,279.747
4071,289.605
4072,290.73
4073,115.943
4074,66.969
4075,76.3
4076,59.117
4077,66.181
4078,59.612
4079,59.612
4080,59.612
4081,59.612
4082,59.612
4083,59.612
4084,59.612
4085,59.612
4086,88.034
4087,121.099
4088,173.33
4089,204.218
4090,205.263
4091,206.335
4092,189.716
4093,216.115
4094,221.408
4095,224.569
4096,227.415
4097,53.677
4098,16.568
4099,16.568
4100,30.916
4101,59.612
4102,59.612
4103,59.612
4104,59.612
4105,59.612
4106,59.612
4107,59.612
4108,59.612
4109,59.612
4110,88.034
4111,120.189
4112,170.601
4113,202.017
4114,203.693
4115,205.271
4116,190.681
4117,223.015
4118,228.284
4119,237.857
4120,243.906
4121,53.677
4122,16.568
4123,16.568
4124,30.916
4125,59.612
4126,59.612
4127,59.612
4128,59.612
4129,59.612
4130,59.612
4131,59.612
4132,59.612
4133,59.612
4134,88.034
4135,120.189
4136,170.813
4137,203.401
4138,205.6
4139,209.077
4140,211.145
4141,239.83
4142,250.683
4143,264.832
4144,273.669
4145,99.908
4146,52.718
4147,57.034
4148,44.802
4149,59.612
4150,59.612
4151,59.612
4152,59.612
4153,59.612
4154,59.612
4155,59.612
4156,59.612
4157,59.612
4158,88.034
4159,120.333
4160,173.498
4161,205.618
4162,210.474
4163,234.594
4164,233.415
4165,269.302
4166,280.461
4167,277.493
4168,277.147
4169,106.046
4170,57.908
4171,61.766
4172,47.114
4173,59.612
4174,59.612
4175,59.612
4176,59.612
4177,59.612
4178,59.612
4179,59.612
4180,59.612
4181,59.612
4182,38.09
4183,66.512
4184,70.486
4185,98.655
4186,100.522
4187,101.589
4188,73.858
4189,68.561
4190,67.452
4191,70.307
4192,16.568
4193,16.568
4194,16.568
4195,16.568
4196,30.916
4197,59.612
4198,59.612
4199,59.612
4200,59.612
4201,59.612
4202,59.612
4203,59.612
4204,59.612
4205,59.612
4206,38.09
4207,16.568
4208,16.568
4209,16.568
4210,16.568
4211,16.568
4212,16.568
4213,16.568
4214,16.568
4215,16.568
4216,16.568
4217,16.568
4218,16.568
4219,16.568
4220,30.916
4221,59.612
4222,59.612
4223,59.612
4224,59.612
4225,59.612
4226,59.612
4227,59.612
4228,59.612
4229,59.612
4230,88.034
4231,120.189
4232,169.892
4233,199.053
4234,199.053
4235,199.107
4236,183.085
4237,201.91
4238,203.703
4239,204.638
4240,204.595
4241,53.677
4242,16.568
4243,16.568
4244,30.916
4245,59.612
4246,59.612
4247,59.612
4248,59.612
4249,59.612
4250,59.612
4251,59.612
4252,59.612
4253,59.612
4254,88.034
4255,120.189
4256,169.892
4257,199.053
4258,200.054
4259,200.639
4260,185.835
4261,205.096
4262,206.105
4263,217.609
4264,220.836
4265,53.677
4266,16.568
4267,16.568
4268,30.916
4269,59.612
4270,59.612
4271,59.612
4272,59.612
4273,59.612
4274,59.612
4275,59.612
4276,59.612
4277,59.612
4278,88.034
4279,120.189
4280,169.892
4281,200.313
4282,202.376
4283,204.028
4284,188.13
4285,211.953
4286,223.576
4287,231.212
4288,234.977
4289,64.8
4290,28.078
4291,16.568
4292,30.916
4293,59.612
4294,59.612
4295,59.612
4296,59.612
4297,59.612
4298,59.612
4299,59.612
4300,59.612
4301,59.612
4302,88.034
4303,120.189
4304,170.361
4305,202.823
4306,204.709
4307,206.692
4308,200.983
4309,230.155
4310,240.443
4311,244.467
4312,245.357
4313,67.073
4314,29.944
4315,16.568
4316,30.916
4317,59.612
4318,59.612
4319,59.612
4320,59.612
4321,59.612
4322,59.612
4323,59.612
4324,59.612
4325,59.612
4326,88.034
4327,120.189
4328,170.067
4329,202.396
4330,205.178
4331,207.565
4332,206.311
4333,239.449
4334,251.266
4335,255.259
4336,254.532
4337,80.676
4338,37.984
4339,19.772
4340,30.916
4341,59.612
4342,59.612
4343,59.612
4344,59.612
4345,59.612
4346,59.612
4347,59.612
4348,59.612
4349,59.612
4350,38.09
4351,66.512
4352,70.609
4353,99.622
4354,102.399
4355,125.173
4356,114.781
4357,132.292
4358,146.338
4359,156.098
4360,92.506
4361,80.516
4362,99.224
4363,65.836
4364,75.239
4365,63.839
4366,59.612
4367,59.612
4368,59.612
4369,59.612
4370,59.612
4371,59.612
4372,59.612
4373,59.612
4374,38.09
4375,16.568
4376,16.568
4377,16.568
4378,33.018
4379,53.375
4380,85.724
4381,81.247
4382,120.823
4383,99.305
4384,130.439
4385,102.907
4386,132.557
4387,90.989
4388,100.841
4389,93.864
4390,91.311
4391,74.143
4392,62.492
4393,59.612
4394,59.612
4395,59.612
4396,59.612
4397,59.612
4398,88.034
4399,127.807
4400,188.681
4401,249.098
4402,269.289
4403,281.88
4404,288.691
4405,330.842
4406,336.984
4407,345.877
4408,351.893
4409,174.076
4410,112.615
4411,128.382
4412,85.368
4413,100.029
4414,63.824
4415,59.612
4416,59.612
4417,59.612
4418,59.612
4419,59.612
4420,59.612
4421,59.612
4422,38.09
4423,16.568
4424,16.568
4425,16.568
4426,28.119
4427,63.908
4428,80.089
4429,100.776
4430,101.294
4431,58.566
4432,16.568
4433,16.568
4434,16.568
4435,16.568
4436,30.916
4437,59.612
4438,59.612
4439,59.612
4440,59.612
4441,59.612
4442,59.612
4443,59.612
4444,59.612
4445,59.612
4446,88.034
4447,120.189
4448,170.158
4449,202.17
4450,203.554
4451,204.617
4452,188.647
4453,215.566
4454,223.037
4455,228.787
4456,233.135
4457,58.64
4458,19.614
4459,16.568
4460,30.916
4461,59.612
4462,59.612
4463,59.612
4464,59.612
4465,59.612
4466,59.612
4467,59.612
4468,59.612
4469,59.612
4470,88.034
4471,120.189
4472,169.892
4473,199.078
4474,200.851
4475,202.993
4476,187.761
4477,207.682
4478,221.127
4479,232.682
4480,236.377
4481,53.677
4482,16.568
4483,16.568
4484,30.916
4485,59.612
4486,59.612
4487,59.612
4488,59.612
4489,59.612
4490,59.612
4491,59.612
4492,59.612
4493,59.612
4494,88.034
4495,120.189
4496,170.639
4497,203.605
4498,205.665
4499,212.557
4500,209.978
4501,237.642
4502,244.926
4503,254.644
4504,255.157
4505,83.971
4506,50.668
4507,34.785
4508,42.95
4509,59.612
4510,59.612
4511,59.612
4512,59.612
4513,59.612
4514,59.612
4515,59.612
4516,59.612
4517,59.612
4518,38.09
4519,66.512
4520,70.827
4521,99.237
4522,101.944
4523,119.386
4524,105.192
4525,114.522
4526,116.807
4527,101.077
4528,16.568
4529,40.007
4530,21.569
4531,16.568
4532,30.916
4533,59.612
4534,59.612
4535,59.612
4536,59.612
4537,59.612
4538,59.612
4539,59.612
4540,59.612
4541,59.612
4542,38.09
4543,16.568
4544,16.568
4545,16.568
4546,16.568
4547,16.568
4548,16.568
4549,16.568
4550,33.972
4551,44.25
4552,68.404
4553,35.358
4554,16.568
4555,16.568
4556,30.916
4557,59.612
4558,59.612
4559,59.612
4560,59.612
4561,59.612
4562,59.612
4563,59.612
4564,59.612
4565,59.612
4566,88.034
4567,122.572
4568,174.946
4569,206.485
4570,215.095
4571,241.001
4572,239.127
4573,263.956
4574,270.166
4575,277.251
4576,277.454
4577,100.104
4578,52.813
4579,57.592
4580,35.135
4581,59.612
4582,59.612
4583,59.612
4584,59.612
4585,59.612
4586,59.612
4587,59.612
4588,59.612
4589,59.612
4590,88.034
4591,120.189
4592,172.592
4593,205.55
4594,210.162
4595,227.226
4596,221.392
4597,251.214
4598,264.018
4599,276.858
4600,287.36
4601,113.881
4602,61.936
4603,68.231
4604,54.815
4605,68.912
4606,59.612
4607,59.612
4608,59.612
4609,59.612
4610,59.612
4611,59.612
4612,59.612
4613,59.612
4614,95.208
4615,120.189
4616,172.81
4617,205.324
4618,211.411
4619,236.469
4620,236.43
4621,269.147
4622,274.624
4623,276.718
4624,286.077
4625,119.435
4626,67.575
4627,72.143
4628,54.981
4629,59.612
4630,59.612
4631,59.612
4632,59.612
4633,59.612
4634,59.612
4635,59.612
4636,59.612
4637,59.612
4638,95.208
4639,121.904
4640,174.97
4641,207.28
4642,224.492
4643,246.974
4644,244.208
4645,268.395
4646,279.347
4647,284.686
4648,271.004
4649,71.289
4650,26.053
4651,16.568
4652,30.916
4653,59.612
4654,59.612
4655,59.612
4656,59.612
4657,59.612
4658,59.612
4659,59.612
4660,59.612
4661,59.612
4662,95.208
4663,121.241
4664,174.783
4665,207.08
4666,219.256
4667,246.831
4668,245.705
4669,263.563
4670,226.644
4671,206.716
4672,206.807
4673,53.677
4674,16.568
4675,16.568
4676,30.916
4677,59.612
4678,59.612
4679,59.612
4680,59.612
4681,59.612
4682,59.612
4683,59.612
4684,59.612
4685,59.612
4686,45.264
4687,66.512
4688,72.085
4689,101.475
4690,105.425
4691,128.574
4692,115.623
4693,91.669
4694,79.484
4695,72.764
4696,16.568
4697,16.568
4698,16.568
4699,16.568
4700,30.916
4701,59.612
4702,59.612
4703,59.612
4704,59.612
4705,59.612
4706,59.612
4707,59.612
4708,59.612
4709,59.612
4710,45.264
4711,16.568
4712,16.568
4713,16.568
4714,16.568
4715,16.568
4716,26.907
4717,43.229
4718,46.864
4719,49.954
4720,36.666
4721,34.998
4722,16.568
4723,16.568
4724,30.916
4725,59.612
4726,59.612
4727,59.612
4728,59.612
4729,59.612
4730,59.612
4731,59.612
4732,59.612
4733,59.612
4734,95.208
4735,120.189
4736,171.233
4737,203.968
4738,205.676
4739,211.781
4740,208.042
4741,238.397
4742,249.073
4743,260
4744,266.736
4745,96.499
4746,49.505
4747,55.091
4748,45.884
4749,59.612
4750,59.612
4751,59.612
4752,59.612
4753,59.612
4754,59.612
4755,59.612
4756,59.612
4757,59.612
4758,95.208
4759,120.3
4760,173.184
4761,205.173
4762,212.048
4763,235.955
4764,237.091
4765,260.96
4766,264.033
4767,277.734
4768,282.013
4769,108.7
4770,60.177
4771,66.82
4772,52.46
4773,59.612
4774,59.612
4775,59.612
4776,59.612
4777,59.612
4778,59.612
4779,59.612
4780,59.612
4781,59.612
4782,95.208
4783,120.848
4784,173.243
4785,205.097
4786,207.573
4787,229.291
4788,233.29
4789,270.474
4790,280.318
4791,276.299
4792,272.283
4793,69.68
4794,16.568
4795,16.568
4796,30.916
4797,59.612
4798,59.612
4799,59.612
4800,59.612
4801,59.612
4802,59.612
4803,59.612
4804,59.612
4805,59.612
4806,95.208
4807,120.799
4808,174.105
4809,206.119
4810,207.32
4811,207.797
4812,191.344
4813,213.091
4814,241.618
4815,260.282
4816,269.813
4817,93.798
4818,49.099
4819,50.278
4820,37.136
4821,59.612
4822,59.612
4823,59.612
4824,59.612
4825,59.612
4826,59.612
4827,59.612
4828,59.612
4829,59.612
4830,95.208
4831,120.708
4832,173.083
4833,203.653
4834,203.957
4835,204.621
4836,189.105
4837,207.25
4838,207.186
4839,207.835
4840,207.298
4841,53.677
4842,16.568
4843,16.568
4844,30.916
4845,59.612
4846,59.612
4847,59.612
4848,59.612
4849,59.612
4850,59.612
4851,59.612
4852,59.612
4853,59.612
4854,45.264
4855,66.512
4856,70.486
4857,96.065
4858,96.065
4859,96.065
4860,66.512
4861,66.512
4862,66.512
4863,66.512
4864,16.568
4865,16.568
4866,16.568
4867,16.568
4868,30.916
4869,59.612
4870,59.612
4871,59.612
4872,59.612
4873,59.612
4874,59.612
4875,59.612
4876,59.612
4877,59.612
4878,45.264
4879,16.568
4880,16.568
4881,16.568
4882,16.568
4883,16.568
4884,16.568
4885,16.568
4886,16.568
4887,16.568
4888,16.568
4889,16.568
4890,16.568
4891,16.568
4892,30.916
4893,59.612
4894,59.612
4895,59.612
4896,59.612
4897,59.612
4898,59.612
4899,59.612
4900,59.612
4901,59.612
4902,95.208
4903,121.77
4904,173.888
4905,205.419
4906,207.441
4907,218.727
4908,218.694
4909,248.536
4910,262.262
4911,267.18
4912,260.503
4913,68.707
4914,43.622
4915,23.762
4916,30.916
4917,59.612
4918,59.612
4919,59.612
4920,59.612
4921,59.612
4922,59.612
4923,59.612
4924,59.612
4925,59.612
4926,95.208
4927,122.361
4928,174.105
4929,205.968
4930,212.481
4931,237.291
4932,237.974
4933,270.448
4934,281.091
4935,286.117
4936,282.455
4937,94.425
4938,43.967
4939,31.876
4940,38.09
4941,59.612
4942,59.612
4943,59.612
4944,59.612
4945,59.612
4946,59.612
4947,59.612
4948,59.612
4949,59.612
4950,95.208
4951,122.623
4952,175.544
4953,207.49
4954,220.879
4955,244.944
4956,244.074
4957,277.867
4958,278.588
4959,286.363
4960,294.476
4961,88.373
4962,18.542
4963,16.568
4964,38.09
4965,59.612
4966,59.612
4967,59.612
4968,59.612
4969,59.612
4970,59.612
4971,59.612
4972,59.612
4973,59.612
4974,95.208
4975,121.468
4976,174.798
4977,207.205
4978,216.397
4979,241.472
4980,236.621
4981,268.897
4982,278.714
4983,288.005
4984,296.97
4985,117.567
4986,63.262
4987,72.785
4988,60.796
4989,59.612
4990,59.612
4991,59.612
4992,59.612
4993,59.612
4994,59.612
4995,59.612
4996,59.612
4997,59.612
4998,102.382
4999,124.841
5000,177.436
5001,215.543
5002,242.725
5003,260.463
5004,255.213
5005,285.688
5006,283.045
5007,262.848
5008,235.23
5009,53.677
5010,16.568
5011,16.568
5012,38.09
5013,59.612
5014,59.612
5015,59.612
5016,59.612
5017,59.612
5018,59.612
5019,59.612
5020,59.612
5021,59.612
5022,52.438
5023,66.512
5024,73.6
5025,102.987
5026,113.046
5027,149.286
5028,136.604
5029,145.418
5030,151.301
5031,157.978
5032,62.391
5033,20.07
5034,16.568
5035,16.568
5036,38.09
5037,59.612
5038,59.612
5039,59.612
5040,59.612
5041,59.612
5042,59.612
5043,59.612
5044,59.612
5045,59.612
5046,52.438
5047,16.568
5048,16.568
5049,16.568
5050,16.568
5051,16.568
5052,16.568
5053,49.39
5054,63.937
5055,70.054
5056,87.147
5057,84.598
5058,81.903
5059,64.326
5060,62.094
5061,61.342
5062,59.612
5063,59.612
5064,59.612
5065,59.612
5066,59.612
5067,59.612
5068,59.612
5069,59.612
5070,102.382
5071,124.903
5072,177.732
5073,215.686
5074,243.46
5075,265.542
5076,259.012
5077,251.868
5078,234.918
5079,252.471
5080,277.926
5081,100.335
5082,37.862
5083,16.568
5084,38.09
5085,59.612
5086,59.612
5087,59.612
5088,59.612
5089,59.612
5090,59.612
5091,59.612
5092,59.612
5093,59.612
5094,102.382
5095,120.189
5096,172.539
5097,204.864
5098,209.426
5099,232.411
5100,229.291
5101,253.596
5102,240.073
5103,235.812
5104,249.305
5105,66.231
5106,30.139
5107,25.657
5108,38.09
5109,59.612
5110,59.612
5111,59.612
5112,59.612
5113,59.612
5114,59.612
5115,59.612
5116,59.612
5117,59.612
5118,102.382
5119,120.189
5120,170.456
5121,203.27
5122,205.979
5123,210.215
5124,206.503
5125,235.116
5126,242.81
5127,250.08
5128,255.843
5129,85.991
5130,40.032
5131,37.55
5132,41.726
5133,59.612
5134,59.612
5135,59.612
5136,59.612
5137,59.612
5138,59.612
5139,59.612
5140,59.612
5141,59.612
5142,102.382
5143,120.189
5144,172.19
5145,204.758
5146,208.885
5147,231.345
5148,229.159
5149,256.582
5150,267.393
5151,273.947
5152,266.065
5153,87.069
5154,40.361
5155,38.398
5156,42.444
5157,59.612
5158,59.612
5159,59.612
5160,59.612
5161,59.612
5162,59.612
5163,59.612
5164,59.612
5165,59.612
5166,102.382
5167,122.849
5168,175.49
5169,207.736
5170,227.45
5171,249.483
5172,242.352
5173,264.233
5174,275.075
5175,288.685
5176,287.088
5177,109.828
5178,53.398
5179,44.267
5180,43.897
5181,59.612
5182,59.612
5183,59.612
5184,59.612
5185,59.612
5186,59.612
5187,59.612
5188,59.612
5189,59.612
5190,52.438
5191,66.512
5192,73.618
5193,99.583
5194,99.48
5195,99.279
5196,68.383
5197,69.356
5198,71.091
5199,76.103
5200,16.568
5201,16.568
5202,16.568
5203,16.568
5204,38.09
5205,59.612
5206,59.612
5207,59.612
5208,59.612
5209,59.612
5210,59.612
5211,59.612
5212,59.612
5213,59.612
5214,52.438
5215,16.568
5216,16.568
5217,16.568
5218,16.568
5219,16.568
5220,16.568
5221,16.568
5222,32.089
5223,16.568
5224,31.566
5225,45.164
5226,36.959
5227,18.892
5228,38.09
5229,59.612
5230,59.612
5231,59.612
5232,59.612
5233,59.612
5234,59.612
5235,59.612
5236,59.612
5237,59.612
5238,102.382
5239,121.688
5240,173.524
5241,204.607
5242,205.837
5243,207.198
5244,199.098
5245,240.711
5246,258.058
5247,268.036
5248,273.883
5249,81.395
5250,38.221
5251,32.777
5252,45.264
5253,59.612
5254,59.612
5255,59.612
5256,59.612
5257,59.612
5258,59.612
5259,59.612
5260,59.612
5261,59.612
5262,102.382
5263,121.348
5264,173.31
5265,204.589
5266,205.699
5267,207.278
5268,199.503
5269,239.41
5270,252.324
5271,252.949
5272,249.856
5273,53.677
5274,16.568
5275,16.568
5276,45.264
5277,59.612
5278,59.612
5279,59.612
5280,59.612
5281,59.612
5282,59.612
5283,59.612
5284,59.612
5285,59.612
5286,102.382
5287,120.683
5288,172.864
5289,204.161
5290,205.725
5291,207.549
5292,201.246
5293,236.298
5294,246.343
5295,259.448
5296,268.902
5297,92.714
5298,45.062
5299,43.891
5300,50.816
5301,59.612
5302,59.612
5303,59.612
5304,59.612
5305,59.612
5306,59.612
5307,59.612
5308,59.612
5309,59.612
5310,102.382
5311,122.051
5312,173.575
5313,205.32
5314,207.711
5315,224.573
5316,224.208
5317,257.595
5318,269.665
5319,272.305
5320,278.653
5321,100.61
5322,43.778
5323,31.608
5324,51.353
5325,59.612
5326,59.612
5327,59.612
5328,59.612
5329,59.612
5330,59.612
5331,59.612
5332,59.612
5333,59.612
5334,109.556
5335,120.189
5336,172.6
5337,204.5
5338,206.313
5339,212.43
5340,215.528
5341,248.523
5342,253.013
5343,258.319
5344,260.606
5345,67.074
5346,16.568
5347,16.568
5348,45.264
5349,59.612
5350,59.612
5351,59.612
5352,59.612
5353,59.612
5354,59.612
5355,59.612
5356,59.612
5357,59.612
5358,59.612
5359,66.512
5360,72.195
5361,99.313
5362,100.895
5363,107.456
5364,100.899
5365,109.36
5366,112.52
5367,110.688
5368,42.17
5369,54.138
5370,36.344
5371,27.495
5372,45.264
5373,59.612
5374,59.612
5375,59.612
5376,59.612
5377,59.612
5378,59.612
5379,59.612
5380,59.612
5381,59.612
5382,59.612
5383,16.568
5384,16.568
5385,16.568
5386,16.568
5387,16.568
5388,16.568
5389,16.568
5390,32.164
5391,53.809
5392,44.13
5393,34.278
5394,23.897
5395,16.568
5396,45.264
5397,59.612
5398,59.612
5399,59.612
5400,59.612
5401,59.612
5402,59.612
5403,59.612
5404,59.612
5405,59.612
5406,109.556
5407,123.097
5408,175.869
5409,210.525
5410,236.605
5411,253.965
5412,250.018
5413,280.662
5414,290.32
5415,302.36
5416,308.373
5417,132.553
5418,74.065
5419,83.127
5420,72.998
5421,59.612
5422,59.612
5423,59.612
5424,59.612
5425,59.612
5426,59.612
5427,59.612
5428,59.612
5429,59.612
5430,109.556
5431,126.124
5432,178.418
5433,226.792
5434,256.911
5435,277.467
5436,272.298
5437,296.19
5438,286.428
5439,247.935
5440,223.884
5441,53.677
5442,16.568
5443,16.568
5444,45.264
5445,59.612
5446,59.612
5447,59.612
5448,59.612
5449,59.612
5450,59.612
5451,59.612
5452,59.612
5453,59.612
5454,109.556
5455,122.973
5456,175.767
5457,210.479
5458,242.064
5459,267.339
5460,262.099
5461,291.298
5462,301.216
5463,283.576
5464,249.127
5465,53.677
5466,24.279
5467,30.068
5468,49.722
5469,59.612
5470,59.612
5471,59.612
5472,59.612
5473,59.612
5474,59.612
5475,59.612
5476,59.612
5477,59.612
5478,109.556
5479,125.53
5480,178.085
5481,218.451
5482,251.441
5483,273.948
5484,272.75
5485,304.891
5486,315.225
5487,315.841
5488,303.729
5489,112.54
5490,60.583
5491,60.476
5492,72.522
5493,59.612
5494,59.612
5495,59.612
5496,59.612
5497,59.612
5498,59.612
5499,59.612
5500,59.612
5501,59.612
5502,109.556
5503,125.883
5504,177.382
5505,214.382
5506,239.52
5507,256.669
5508,254.934
5509,289.817
5510,297.744
5511,301.706
5512,304.551
5513,128.698
5514,67.236
5515,64.869
5516,75.64
5517,69.677
5518,59.612
5519,59.612
5520,59.612
5521,59.612
5522,59.612
5523,59.612
5524,59.612
5525,59.612
5526,59.612
5527,66.512
5528,73.159
5529,101.604
5530,107.15
5531,125.399
5532,106.584
5533,119.273
5534,126.265
5535,135.193
5536,75.339
5537,69.342
5538,81.113
5539,45.034
5540,52.438
5541,59.612
5542,59.612
5543,59.612
5544,59.612
5545,59.612
5546,59.612
5547,59.612
5548,59.612
5549,59.612
5550,59.612
5551,16.568
5552,16.568
5553,16.568
5554,16.568
5555,16.568
5556,38.55
5557,58.33
5558,21.736
5559,16.568
5560,16.568
5561,31.357
5562,38.929
5563,26.787
5564,52.438
5565,59.612
5566,59.612
5567,59.612
5568,59.612
5569,59.612
5570,59.612
5571,59.612
5572,59.612
5573,59.612
5574,109.556
5575,123.399
5576,175.489
5577,208.322
5578,222.894
5579,245.905
5580,242.544
5581,273.191
5582,277.124
5583,280.792
5584,284.739
5585,107.034
5586,48.894
5587,28.397
5588,52.438
5589,59.612
5590,59.612
5591,59.612
5592,59.612
5593,59.612
5594,59.612
5595,59.612
5596,59.612
5597,59.612
5598,109.556
5599,123.864
5600,176.079
5601,207.814
5602,217.573
5603,239.622
5604,236.455
5605,265.474
5606,276.531
5607,285.523
5608,293.77
5609,119.16
5610,60.027
5611,56.813
5612,63.805
5613,60.599
5614,59.612
5615,59.612
5616,59.612
5617,59.612
5618,59.612
5619,59.612
5620,59.612
5621,59.612
5622,109.556
5623,124.586
5624,176.973
5625,210.645
5626,234.004
5627,254.215
5628,253.362
5629,275.594
5630,285.97
5631,294.413
5632,286.728
5633,72.623
5634,16.568
5635,16.568
5636,52.438
5637,59.612
5638,59.612
5639,59.612
5640,59.612
5641,59.612
5642,59.612
5643,59.612
5644,59.612
5645,59.612
5646,109.556
5647,121.106
5648,173.561
5649,205.843
5650,208.698
5651,232.739
5652,234.607
5653,268.789
5654,251.793
5655,249.029
5656,274.498
5657,99.92
5658,50.709
5659,46.404
5660,58.247
5661,59.612
5662,59.612
5663,59.612
5664,59.612
5665,59.612
5666,59.612
5667,59.612
5668,59.612
5669,59.612
5670,109.556
5671,130.847
5672,176.139
5673,208.734
5674,233.746
5675,257.558
5676,250.957
5677,278.827
5678,285.869
5679,290.235
5680,294.048
5681,76.693
5682,16.568
5683,16.568
5684,59.612
5685,59.612
5686,59.612
5687,59.612
5688,59.612
5689,59.612
5690,59.612
5691,59.612
5692,59.612
5693,59.612
5694,59.612
5695,73.686
5696,71.036
5697,99.733
5698,102.559
5699,118.024
5700,75.357
5701,70.083
5702,75.065
5703,107.439
5704,43.751
5705,53.681
5706,49.458
5707,39.225
5708,62.119
5709,59.612
5710,59.612
5711,59.612
5712,59.612
5713,59.612
5714,59.612
5715,59.612
5716,59.612
5717,59.612
5718,59.612
5719,23.742
5720,16.568
5721,16.568
5722,16.568
5723,16.568
5724,55.743
5725,66.218
5726,70.475
5727,76.797
5728,62.632
5729,46.808
5730,16.568
5731,16.568
5732,59.612
5733,59.612
5734,59.612
5735,59.612
5736,59.612
5737,59.612
5738,59.612
5739,59.612
5740,59.612
5741,59.612
5742,109.556
5743,127.897
5744,173.24
5745,205.412
5746,207.833
5747,219.475
5748,222.12
5749,251.063
5750,258.294
5751,259.189
5752,260.389
5753,73.312
5754,40.379
5755,21.833
5756,59.612
5757,59.612
5758,59.612
5759,59.612
5760,59.612
5761,59.612
5762,59.612
5763,59.612
5764,59.612
5765,59.612
5766,109.556
5767,127.527
5768,172.617
5769,204.364
5770,206.075
5771,207.383
5772,201.682
5773,233.486
5774,244.781
5775,252.433
5776,259.691
5777,91.062
5778,40.278
5779,29.235
5780,59.612
5781,59.612
5782,59.612
5783,59.612
5784,59.612
5785,59.612
5786,59.612
5787,59.612
5788,59.612
5789,59.612
5790,109.556
5791,127.363
5792,169.892
5793,200.527
5794,202.399
5795,204.559
5796,189.598
5797,215.323
5798,232.511
5799,244.569
5800,249.237
5801,65.747
5802,24.713
5803,16.568
5804,59.612
5805,59.612
5806,59.612
5807,59.612
5808,59.612
5809,59.612
5810,59.612
5811,59.612
5812,59.612
5813,59.612
5814,109.556
5815,127.363
5816,169.892
5817,201.333
5818,204.136
5819,206.766
5820,193.115
5821,223.875
5822,235.731
5823,240.864
5824,248.197
5825,78.925
5826,34.554
5827,18.813
5828,59.612
5829,59.612
5830,59.612
5831,59.612
5832,59.612
5833,59.612
5834,59.612
5835,59.612
5836,59.612
5837,59.612
5838,109.556
5839,128.746
5840,173.275
5841,204.03
5842,205.111
5843,207.13
5844,194.473
5845,224.862
5846,237.41
5847,245.715
5848,250.979
5849,64.869
5850,16.568
5851,16.568
5852,59.612
5853,59.612
5854,59.612
5855,59.612
5856,59.612
5857,59.612
5858,59.612
5859,59.612
5860,59.612
5861,59.612
5862,59.612
5863,73.686
5864,70.486
5865,97.001
5866,98.728
5867,100.531
5868,71.394
5869,73.629
5870,85.77
5871,91.544
5872,16.568
5873,16.568
5874,16.568
5875,23.742
5876,59.612
5877,59.612
5878,59.612
5879,59.612
5880,59.612
5881,59.612
5882,59.612
5883,59.612
5884,59.612
5885,59.612
5886,59.612
5887,23.742
5888,16.568
5889,16.568
5890,16.568
5891,16.568
5892,16.568
5893,16.568
5894,16.568
5895,16.568
5896,16.568
5897,16.568
5898,16.568
5899,23.742
5900,59.612
5901,59.612
5902,59.612
5903,59.612
5904,59.612
5905,59.612
5906,59.612
5907,59.612
5908,59.612
5909,59.612
5910,59.612
5911,23.742
5912,16.568
5913,16.568
5914,16.568
5915,16.568
5916,16.568
5917,16.568
5918,16.568
5919,16.568
5920,16.568
5921,16.568
5922,16.568
5923,23.742
5924,59.612
5925,59.612
5926,59.612
5927,59.612
5928,59.612
5929,59.612
5930,59.612
5931,59.612
5932,59.612
5933,59.612
5934,109.556
5935,128.744
5936,174.379
5937,205.771
5938,207.616
5939,214.022
5940,210.447
5941,238.302
5942,246.663
5943,246.173
5944,251.008
5945,68.548
5946,28.094
5947,23.742
5948,59.612
5949,59.612
5950,59.612
5951,59.612
5952,59.612
5953,59.612
5954,59.612
5955,59.612
5956,59.612
5957,59.612
5958,109.556
5959,127.895
5960,173.49
5961,204.773
5962,206.152
5963,209.29
5964,207.863
5965,234.709
5966,245.378
5967,248.355
5968,248.527
5969,67.66
5970,32.423
5971,30.731
5972,59.612
5973,59.612
5974,59.612
5975,59.612
5976,59.612
5977,59.612
5978,59.612
5979,59.612
5980,59.612
5981,59.612
5982,109.556
5983,127.363
5984,171.187
5985,203.801
5986,206.34
5987,209.674
5988,206.601
5989,235.322
5990,244.368
5991,249.143
5992,250.027
5993,65.357
5994,26.234
5995,23.742
5996,59.612
5997,59.612
5998,59.612
5999,59.612
6000,59.612
6001,59.612
6002,59.612
6003,59.612
6004,59.612
6005,59.612
6006,109.556
6007,127.363
6008,170.766
6009,201.986
6010,202.903
6011,205.176
6012,189.834
6013,214.04
6014,230.375
6015,238.504
6016,241.078
6017,53.677
6018,16.568
6019,23.742
6020,59.612
6021,59.612
6022,59.612
6023,59.612
6024,59.612
6025,59.612
6026,59.612
6027,59.612
6028,59.612
6029,59.612
6030,59.612
6031,80.86
6032,70.486
6033,96.11
6034,98.398
6035,101.467
6036,74.636
6037,92.481
6038,101.815
6039,104.775
6040,25.852
6041,19.151
6042,16.568
6043,23.742
6044,59.612
6045,59.612
6046,59.612
6047,59.612
6048,59.612
6049,59.612
6050,59.612
6051,59.612
6052,59.612
6053,59.612
6054,59.612
6055,30.916
6056,16.568
6057,16.568
6058,16.568
6059,16.568
6060,16.568
6061,16.568
6062,23.957
6063,38.282
6064,38.044
6065,32.055
6066,27.642
6067,30.916
6068,59.612
6069,59.612
6070,59.612
6071,59.612
6072,59.612
6073,59.612
6074,59.612
6075,59.612
6076,59.612
6077,59.612
6078,109.556
6079,136.287
6080,173.879
6081,205.672
6082,207.956
6083,222.986
6084,224.081
6085,255.889
6086,267.282
6087,242.402
6088,227.357
6089,53.677
6090,16.568
6091,30.916
6092,59.612
6093,59.612
6094,59.612
6095,59.612
6096,59.612
6097,59.612
6098,59.612
6099,59.612
6100,59.612
6101,59.612
6102,109.556
6103,134.537
6104,169.901
6105,201.323
6106,203.616
6107,205.881
6108,190.716
6109,217.629
6110,227.297
6111,232.629
6112,235.651
6113,53.677
6114,16.568
6115,30.916
6116,59.612
6117,59.612
6118,59.612
6119,59.612
6120,59.612
6121,59.612
6122,59.612
6123,59.612
6124,59.612
6125,59.612
6126,109.556
6127,134.537
6128,169.892
6129,199.053
6130,199.154
6131,201.124
6132,186.007
6133,203.426
6134,203.622
6135,204.759
6136,204.533
6137,53.677
6138,16.568
6139,30.916
6140,59.612
6141,59.612
6142,59.612
6143,59.612
6144,59.612
6145,59.612
6146,59.612
6147,59.612
6148,59.612
6149,59.612
6150,109.556
6151,134.537
6152,169.892
6153,199.053
6154,200.373
6155,203.993
6156,189.125
6157,208.006
6158,223.621
6159,236.91
6160,244.934
6161,63.523
6162,16.568
6163,30.916
6164,59.612
6165,59.612
6166,59.612
6167,59.612
6168,59.612
6169,59.612
6170,59.612
6171,59.612
6172,59.612
6173,59.612
6174,109.556
6175,134.537
6176,169.892
6177,202.367
6178,205.892
6179,208.157
6180,203.608
6181,235.758
6182,244.742
6183,246.801
6184,251.086
6185,66.358
6186,26.247
6187,30.916
6188,59.612
6189,59.612
6190,59.612
6191,59.612
6192,59.612
6193,59.612
6194,59.612
6195,59.612
6196,59.612
6197,59.612
6198,59.612
6199,80.86
6200,70.486
6201,96.065
6202,96.065
6203,96.065
6204,66.67
6205,67.346
6206,67.884
6207,68.225
6208,16.568
6209,16.568
6210,16.568
6211,30.916
6212,59.612
6213,59.612
6214,59.612
6215,59.612
6216,59.612
6217,59.612
6218,59.612
6219,59.612
6220,59.612
6221,59.612
6222,59.612
6223,30.916
6224,16.568
6225,16.568
6226,16.568
6227,16.568
6228,16.568
6229,16.568
6230,16.568
6231,16.568
6232,16.568
6233,16.568
6234,16.568
6235,38.09
6236,59.612
6237,59.612
6238,59.612
6239,59.612
6240,59.612
6241,59.612
6242,59.612
6243,59.612
6244,59.612
6245,59.612
6246,109.556
6247,134.537
6248,169.892
6249,200.354
6250,202.043
6251,203.208
6252,187.105
6253,205.224
6254,205.589
6255,205.676
6256,205.663
6257,53.677
6258,16.568
6259,38.09
6260,59.612
6261,59.612
6262,59.612
6263,59.612
6264,59.612
6265,59.612
6266,59.612
6267,59.612
6268,59.612
6269,59.612
6270,109.556
6271,134.537
6272,169.892
6273,199.933
6274,203.065
6275,205.66
6276,189.452
6277,208.692
6278,219.113
6279,227.646
6280,233.796
6281,53.677
6282,16.568
6283,38.09
6284,59.612
6285,59.612
6286,59.612
6287,59.612
6288,59.612
6289,59.612
6290,59.612
6291,59.612
6292,59.612
6293,59.612
6294,109.556
6295,134.537
6296,169.892
6297,202.232
6298,206.236
6299,208.326
6300,199.576
6301,234.385
6302,244.916
6303,252.254
6304,252.804
6305,62.586
6306,16.568
6307,38.09
6308,59.612
6309,59.612
6310,59.612
6311,59.612
6312,59.612
6313,59.612
6314,59.612
6315,59.612
6316,59.612
6317,59.612
6318,109.556
6319,134.537
6320,170.736
6321,202.13
6322,202.95
6323,204.67
6324,189.936
6325,213.042
6326,229.695
6327,240.171
6328,244.739
6329,53.677
6330,16.568
6331,38.09
6332,59.612
6333,59.612
6334,59.612
6335,59.612
6336,59.612
6337,59.612
6338,59.612
6339,59.612
6340,59.612
6341,59.612
6342,109.556
6343,134.537
6344,170.208
6345,201.458
6346,203.048
6347,204.666
6348,188.617
6349,205.555
6350,206.104
6351,207.921
6352,208.182
6353,53.677
6354,16.568
6355,38.09
6356,59.612
6357,59.612
6358,59.612
6359,59.612
6360,59.612
6361,59.612
6362,59.612
6363,59.612
6364,59.612
6365,59.612
6366,59.612
6367,80.86
6368,70.486
6369,96.065
6370,96.065
6371,96.065
6372,66.512
6373,66.512
6374,66.512
6375,66.512
6376,16.568
6377,16.568
6378,16.568
6379,38.09
6380,59.612
6381,59.612
6382,59.612
6383,59.612
6384,59.612
6385,59.612
6386,59.612
6387,59.612
6388,59.612
6389,59.612
6390,59.612
6391,38.09
6392,16.568
6393,16.568
6394,16.568
6395,16.568
6396,16.568
6397,16.568
6398,16.568
6399,16.568
6400,16.568
6401,16.568
6402,16.568
6403,45.264
6404,59.612
6405,59.612
6406,59.612
6407,59.612
6408,59.612
6409,59.612
6410,59.612
6411,59.612
6412,59.612
6413,59.612
6414,109.556
6415,141.711
6416,169.904
6417,200.921
6418,201.767
6419,202.504
6420,185.826
6421,203.194
6422,204.039
6423,204.562
6424,204.12
6425,53.677
6426,16.568
6427,45.264
6428,59.612
6429,59.612
6430,59.612
6431,59.612
6432,59.612
6433,59.612
6434,59.612
6435,59.612
6436,59.612
6437,59.612
6438,109.556
6439,141.711
6440,169.892
6441,199.053
6442,199.082
6443,200.323
6444,184.827
6445,202.989
6446,203.455
6447,203.672
6448,203.909
6449,53.677
6450,16.568
6451,45.264
6452,59.612
6453,59.612
6454,59.612
6455,59.612
6456,59.612
6457,59.612
6458,59.612
6459,59.612
6460,59.612
6461,59.612
6462,109.556
6463,141.711
6464,169.892
6465,199.411
6466,201.468
6467,203.56
6468,189.256
6469,210.441
6470,225.223
6471,232.651
6472,234.919
6473,53.677
6474,16.568
6475,45.264
6476,59.612
6477,59.612
6478,59.612
6479,59.612
6480,59.612
6481,59.612
6482,59.612
6483,59.612
6484,59.612
6485,59.612
6486,109.556
6487,141.711
6488,169.972
6489,201.097
6490,203.125
6491,205.9
6492,190.193
6493,212.271
6494,224.712
6495,234.189
6496,237.666
6497,53.677
6498,16.568
6499,45.264
6500,59.612
6501,59.612
6502,59.612
6503,59.612
6504,59.612
6505,59.612
6506,59.612
6507,59.612
6508,59.612
6509,59.612
6510,109.556
6511,141.711
6512,169.918
6513,201.544
6514,204.01
6515,205.609
6516,190.289
6517,218.006
6518,232.58
6519,240.468
6520,243.098
6521,53.677
6522,16.568
6523,45.264
6524,59.612
6525,59.612
6526,59.612
6527,59.612
6528,59.612
6529,59.612
6530,59.612
6531,59.612
6532,59.612
6533,59.612
6534,59.612
6535,88.034
6536,70.486
6537,96.065
6538,98.742
6539,101.954
6540,76.677
6541,93.361
6542,98.812
6543,100.604
6544,28.062
6545,27.883
6546,16.568
6547,45.264
6548,59.612
6549,59.612
6550,59.612
6551,59.612
6552,59.612
6553,59.612
6554,59.612
6555,59.612
6556,59.612
6557,59.612
6558,59.612
6559,38.09
6560,16.568
6561,16.568
6562,16.568
6563,16.568
6564,16.568
6565,16.568
6566,16.568
6567,16.568
6568,16.568
6569,16.568
6570,16.568
6571,52.438
6572,59.612
6573,59.612
6574,59.612
6575,59.612
6576,59.612
6577,59.612
6578,59.612
6579,59.612
6580,59.612
6581,59.612
6582,109.556
6583,141.711
6584,169.892
6585,199.053
6586,199.053
6587,199.188
6588,183.398
6589,202.655
6590,203.948
6591,204.448
6592,204.068
6593,53.677
6594,16.568
6595,52.438
6596,59.612
6597,59.612
6598,59.612
6599,59.612
6600,59.612
6601,59.612
6602,59.612
6603,59.612
6604,59.612
6605,59.612
6606,109.556
6607,141.711
6608,169.892
6609,199.053
6610,199.053
6611,199.053
6612,182.486
6613,199.213
6614,200.664
6615,202.123
6616,202.802
6617,53.677
6618,16.568
6619,52.438
6620,59.612
6621,59.612
6622,59.612
6623,59.612
6624,59.612
6625,59.612
6626,59.612
6627,59.612
6628,59.612
6629,59.612
6630,109.556
6631,141.711
6632,169.892
6633,199.053
6634,199.053
6635,199.053
6636,182.486
6637,199.053
6638,199.053
6639,199.053
6640,199.053
6641,53.677
6642,16.568
6643,52.438
6644,59.612
6645,59.612
6646,59.612
6647,59.612
6648,60.44
6649,62.482
6650,63.187
6651,65.691
6652,64.963
6653,67.936
6654,109.556
6655,141.711
6656,169.892
6657,199.053
6658,199.053
6659,199.053
6660,182.486
6661,199.053
6662,199.053
6663,199.053
6664,199.053
6665,53.677
6666,16.568
6667,52.438
6668,59.612
6669,59.612
6670,59.612
6671,59.612
6672,60.518
6673,62.765
6674,63.336
6675,66.23
6676,65.7
6677,68.331
6678,109.556
6679,141.711
6680,169.892
6681,199.053
6682,199.053
6683,199.053
6684,182.486
6685,199.053
6686,199.053
6687,199.053
6688,199.053
6689,53.677
6690,16.568
6691,52.438
6692,59.612
6693,59.612
6694,59.612
6695,59.612
6696,59.612
6697,59.612
6698,59.612
6699,59.612
6700,59.612
6701,60.383
6702,61.146
6703,88.034
6704,70.486
6705,96.065
6706,96.065
6707,96.065
6708,66.512
6709,66.512
6710,66.512
6711,66.512
6712,16.568
6713,16.568
6714,16.568
6715,52.438
6716,59.612
6717,59.612
6718,59.612
6719,59.612
6720,59.612
6721,59.612
6722,59.612
6723,59.612
6724,59.612
6725,62.197
6726,61.937
6727,47.607
6728,16.568
6729,16.568
6730,16.568
6731,16.568
6732,16.568
6733,16.568
6734,16.568
6735,16.568
6736,16.568
6737,16.568
6738,16.568
6739,52.438
6740,59.612
6741,59.612
6742,59.612
6743,59.612
6744,59.612
6745,59.612
6746,59.612
6747,59.612
6748,59.612
6749,59.612
6750,59.612
6751,45.264
6752,16.568
6753,16.568
6754,16.568
6755,16.568
6756,16.568
6757,16.568
6758,16.568
6759,16.568
6760,16.568
6761,16.568
6762,16.568
6763,59.612
6764,59.612
6765,59.612
6766,59.612
6767,59.612
6768,59.612
6769,59.612
6770,59.612
6771,59.612
6772,59.612
6773,59.612
6774,109.556
6775,148.885
6776,169.892
6777,199.053
6778,199.053
6779,199.053
6780,182.486
6781,199.053
6782,199.053
6783,199.053
6784,199.053
6785,53.677
6786,16.568
6787,59.612
6788,59.612
6789,62.666
6790,62.578
6791,62.773
6792,63.526
6793,64.599
6794,64.97
6795,66.243
6796,66.887
6797,68.236
6798,109.556
6799,148.885
6800,169.892
6801,199.053
6802,199.053
6803,199.053
6804,182.486
6805,199.053
6806,199.053
6807,199.053
6808,199.053
6809,53.677
6810,16.568
6811,59.612
6812,59.612
6813,59.612
6814,59.612
6815,59.612
6816,59.612
6817,59.612
6818,59.612
6819,61.238
6820,62.742
6821,63.23
6822,109.556
6823,148.885
6824,169.892
6825,199.053
6826,199.053
6827,199.053
6828,182.486
6829,199.368
6830,201.544
6831,203.206
6832,206.458
6833,53.677
6834,16.568
6835,59.612
6836,59.612
6837,59.612
6838,59.612
6839,59.612
6840,59.612
6841,59.612
6842,59.612
6843,59.612
6844,59.612
6845,59.612
6846,109.556
6847,148.885
6848,169.892
6849,199.053
6850,199.053
6851,199.053
6852,182.486
6853,199.053
6854,199.053
6855,199.053
6856,199.053
6857,53.677
6858,16.568
6859,59.612
6860,59.612
6861,59.612
6862,59.612
6863,63.614
6864,63.624
6865,66.646
6866,66.226
6867,69.95
6868,68.332
6869,72.601
6870,70.165
6871,95.208
6872,70.486
6873,96.065
6874,96.065
6875,96.065
6876,66.512
6877,66.512
6878,66.512
6879,66.512
6880,16.568
6881,16.568
6882,16.568
6883,59.612
6884,59.612
6885,59.612
6886,59.612
6887,60.92
6888,62.718
6889,64.32
6890,66.138
6891,66.753
6892,67.872
6893,67.632
6894,68.782
6895,55.232
6896,26.61
6897,22.917
6898,19.33
6899,16.775
6900,16.568
6901,16.568
6902,16.568
6903,16.568
6904,16.568
6905,16.568
6906,16.568
6907,59.612
6908,59.612
6909,59.612
6910,59.612
6911,59.612
6912,59.612
6913,59.612
6914,62.501
6915,63.234
6916,63.632
6917,64.25
6918,109.556
6919,148.885
6920,169.892
6921,199.053
6922,199.053
6923,199.053
6924,182.486
6925,199.053
6926,199.053
6927,199.053
6928,199.218
6929,53.677
6930,16.568
6931,59.612
6932,59.612
6933,59.612
6934,59.612
6935,59.612
6936,59.612
6937,59.612
6938,59.612
6939,59.612
6940,59.612
6941,59.612
6942,109.556
6943,148.885
6944,169.892
6945,199.053
6946,199.053
6947,199.053
6948,182.486
6949,199.868
6950,201.556
6951,202.634
6952,202.629
6953,53.677
6954,23.742
6955,59.612
6956,59.612
6957,59.612
6958,59.612
6959,59.612
6960,59.612
6961,59.612
6962,59.612
6963,59.612
6964,59.612
6965,59.612
6966,109.556
6967,148.885
6968,169.892
6969,199.053
6970,199.053
6971,199.053
6972,182.486
6973,199.599
6974,201.523
6975,202.888
6976,203.945
6977,53.677
6978,23.742
6979,59.612
6980,59.612
6981,59.612
6982,59.612
6983,59.612
6984,59.612
6985,59.612
6986,59.612
6987,59.612
6988,59.612
6989,59.612
6990,109.556
6991,148.885
6992,169.892
6993,199.053
6994,199.053
6995,199.053
6996,182.486
6997,199.053
6998,199.834
6999,201.611
7000,202.629
7001,53.677
7002,23.742
7003,59.612
7004,59.612
7005,59.612
7006,59.612
7007,59.612
7008,59.612
7009,59.612
7010,59.612
7011,59.612
7012,59.612
7013,59.612
7014,109.556
7015,148.885
7016,169.892
7017,199.053
7018,199.053
7019,199.053
7020,182.486
7021,199.053
7022,199.531
7023,201.93
7024,203.122
7025,53.677
7026,23.742
7027,59.612
7028,59.612
7029,59.612
7030,59.612
7031,59.612
7032,59.612
7033,59.612
7034,59.612
7035,59.612
7036,59.612
7037,59.612
7038,59.612
7039,102.382
7040,70.486
7041,96.065
7042,96.065
7043,96.065
7044,66.512
7045,66.512
7046,66.512
7047,66.542
7048,16.568
7049,16.568
7050,23.742
7051,59.612
7052,59.612
7053,59.612
7054,59.612
7055,59.612
7056,59.612
7057,59.612
7058,59.612
7059,59.612
7060,59.612
7061,59.612
7062,59.612
7063,52.438
7064,16.568
7065,16.568
7066,16.568
7067,16.568
7068,16.568
7069,16.568
7070,16.568
7071,16.568
7072,16.568
7073,16.568
7074,23.742
7075,59.612
7076,59.612
7077,59.612
7078,59.612
7079,59.612
7080,59.612
7081,59.612
7082,59.612
7083,59.612
7084,59.612
7085,59.612
7086,109.556
7087,156.059
7088,169.892
7089,199.053
7090,199.053
7091,199.053
7092,182.486
7093,199.053
7094,199.053
7095,199.053
7096,199.053
7097,53.677
7098,23.742
7099,59.612
7100,59.612
7101,59.612
7102,59.612
7103,61.629
7104,64.955
7105,64.681
7106,68.169
7107,67.087
7108,70.426
7109,68.409
7110,109.556
7111,156.059
7112,169.892
7113,199.053
7114,199.053
7115,199.053
7116,182.486
7117,199.053
7118,199.053
7119,199.053
7120,199.053
7121,53.677
7122,23.742
7123,59.612
7124,59.612
7125,59.612
7126,61.55
7127,63.479
7128,64.532
7129,65.286
7130,67.108
7131,67.922
7132,69.396
7133,69.479
7134,109.556
7135,156.059
7136,169.892
7137,199.053
7138,199.053
7139,199.053
7140,182.486
7141,199.053
7142,199.053
7143,199.053
7144,199.053
7145,53.677
7146,30.916
7147,59.612
7148,59.612
7149,59.612
7150,59.612
7151,61.276
7152,62.593
7153,63.794
7154,65.101
7155,67.172
7156,68.087
7157,69.491
7158,109.556
7159,156.059
7160,169.892
7161,199.053
7162,199.053
7163,199.053
7164,182.486
7165,199.053
7166,199.053
7167,199.053
7168,199.053
7169,53.677
7170,30.916
7171,59.612
7172,59.612
7173,59.612
7174,59.612
7175,60.342
7176,62.235
7177,62.502
7178,64.77
7179,65.302
7180,67.713
7181,66.04
7182,109.556
7183,156.059
7184,169.892
7185,199.053
7186,199.053
7187,199.053
7188,182.486
7189,199.053
7190,199.053
7191,199.053
7192,199.053
7193,53.677
7194,30.916
7195,59.612
7196,59.612
7197,59.612
7198,59.612
7199,59.612
7200,59.612
7201,59.612
7202,59.612
7203,61.195
7204,63.909
7205,64.261
7206,67.179
7207,102.382
7208,70.486
7209,96.065
7210,96.065
7211,96.065
7212,66.512
7213,66.512
7214,66.512
7215,66.512
7216,16.568
7217,16.568
7218,30.916
7219,59.612
7220,59.612
7221,59.612
7222,59.612
7223,59.612
7224,59.612
7225,59.612
7226,59.612
7227,59.612
7228,59.612
7229,59.612
7230,59.612
7231,52.438
7232,16.568
7233,16.568
7234,16.568
7235,16.568
7236,16.568
7237,16.568
7238,16.568
7239,16.568
7240,16.568
7241,16.568
7242,30.916
7243,59.612
7244,59.612
7245,59.612
7246,59.612
7247,59.612
7248,59.612
7249,59.612
7250,59.612
7251,59.612
7252,59.612
7253,59.612
7254,109.556
7255,156.059
7256,169.892
7257,199.053
7258,199.053
7259,199.053
7260,182.486
7261,199.053
7262,199.053
7263,199.053
7264,199.053
7265,53.677
7266,30.916
7267,59.612
7268,59.612
7269,59.612
7270,59.612
7271,59.612
7272,59.612
7273,59.612
7274,59.612
7275,59.612
7276,59.612
7277,59.612
7278,109.556
7279,156.059
7280,169.892
7281,199.053
7282,199.053
7283,199.053
7284,182.486
7285,199.053
7286,199.053
7287,199.053
7288,199.053
7289,53.677
7290,30.916
7291,59.612
7292,59.612
7293,59.612
7294,59.612
7295,59.612
7296,59.612
7297,59.612
7298,59.612
7299,59.612
7300,59.612
7301,59.612
7302,109.556
7303,163.233
7304,169.892
7305,199.053
7306,199.053
7307,199.053
7308,182.486
7309,199.053
7310,199.053
7311,199.053
7312,199.053
7313,56.239
7314,37.334
7315,67.875
7316,68.491
7317,70.02
7318,71.121
7319,72.807
7320,73.363
7321,75.08
7322,75.041
7323,76.587
7324,76.185
7325,77.558
7326,109.556
7327,163.233
7328,169.892
7329,199.053
7330,199.053
7331,199.053
7332,182.486
7333,199.053
7334,199.053
7335,199.053
7336,199.053
7337,55.63
7338,36.101
7339,68.092
7340,70.421
7341,73.537
7342,73.659
7343,75.899
7344,75.621
7345,77.076
7346,77.277
7347,79.746
7348,80.177
7349,83.674
7350,109.361
7351,163.154
7352,169.648
7353,199.053
7354,199.053
7355,199.053
7356,182.486
7357,199.053
7358,199.053
7359,199.053
7360,199.053
7361,53.677
7362,30.916
7363,63.59
7364,64.352
7365,68.348
7366,67.04
7367,71.78
7368,69.846
7369,74.067
7370,71.544
7371,77.722
7372,73.79
7373,80.106
7374,75.867
7375,109.556
7376,70.486
7377,96.065
7378,96.065
7379,96.065
7380,66.512
7381,66.512
7382,66.512
7383,66.512
7384,16.568
7385,16.568
7386,38.09
7387,59.612
7388,60.483
7389,61.974
7390,62.15
7391,63.992
7392,63.076
7393,64.463
7394,63.337
7395,65.013
7396,63.733
7397,65.194
7398,64.079
7399,65.995
7400,21.366
7401,21.643
7402,18.443
7403,16.568
7404,16.568
7405,16.568
7406,16.568
7407,16.568
7408,16.568
7409,16.568
7410,38.09
7411,59.612
7412,59.612
7413,59.612
7414,59.612
7415,60.709
7416,61.024
7417,61.423
7418,63.14
7419,63.534
7420,63.235
7421,63.476
7422,63.663
7423,109.556
7424,120.189
7425,169.892
7426,199.053
7427,199.053
7428,199.053
7429,182.486
7430,199.053
7431,199.053
7432,199.053
7433,199.053
7434,75.199
7435,59.612
7436,59.612
7437,59.612
7438,59.612
7439,62.316
7440,63.434
7441,64.536
7442,65.353
7443,65.412
7444,66.353
7445,66.553
7446,67.561
7447,109.556
7448,120.189
7449,169.892
7450,199.053
7451,199.053
7452,199.053
7453,182.486
7454,199.053
7455,199.053
7456,199.053
7457,199.053
7458,75.199
7459,59.612
7460,59.612
7461,60.886
7462,62.197
7463,64.604
7464,64.213
7465,67.271
7466,66.391
7467,70.123
7468,68.306
7469,72.306
7470,69.649
7471,109.556
7472,120.189
7473,169.892
7474,199.053
7475,199.053
7476,199.053
7477,182.486
7478,199.053
7479,199.053
7480,199.053
7481,199.053
7482,75.199
7483,59.612
7484,60.861
7485,62.83
7486,65.421
7487,67.888
7488,68.829
7489,70.298
7490,69.724
7491,70.989
7492,70.382
7493,71.894
7494,72.817
7495,109.556
7496,120.189
7497,169.892
7498,199.053
7499,199.053
7500,199.053
7501,182.486
7502,199.053
7503,199.053
7504,199.053
7505,199.053
7506,75.199
7507,61.376
7508,61.884
7509,63.918
7510,63.073
7511,64.865
7512,63.96
7513,65.35
7514,63.78
7515,64.822
7516,63.34
7517,64.69
7518,63.627
7519,109.556
7520,120.189
7521,169.892
7522,199.053
7523,199.053
7524,199.053
7525,182.486
7526,199.053
7527,199.053
7528,199.053
7529,199.053
7530,75.199
7531,59.612
7532,59.612
7533,59.612
7534,59.612
7535,60.983
7536,62.102
7537,64.535
7538,66.441
7539,67.123
7540,66.824
7541,68.356
7542,68.727
7543,68.444
7544,25.024
7545,23.706
7546,19.584
7547,18.124
7548,16.568
7549,16.568
7550,16.568
7551,16.568
7552,16.568
7553,16.568
7554,38.09
7555,59.612
7556,60.437
7557,63.11
7558,64.354
7559,65.653
7560,65.672
7561,66.87
7562,68.194
7563,69.581
7564,69.643
7565,71.097
7566,71.568
7567,73.805
7568,37.713
7569,30.189
7570,26.529
7571,23.872
7572,20.627
7573,18.566
7574,16.806
7575,16.568
7576,16.568
7577,17.318
7578,41.707
7579,67.207
7580,70.51
7581,72.045
7582,74.098
7583,75.087
7584,77.531
7585,76.862
7586,77.731
7587,77.23
7588,78.332
7589,76.678
7590,77.762
7591,109.556
7592,127.363
7593,169.892
7594,199.053
7595,199.053
7596,199.053
7597,182.486
7598,199.053
7599,199.053
7600,199.053
7601,199.053
7602,87.838
7603,72.226
7604,78.417
7605,75.32
7606,82.143
7607,77.631
7608,84.192
7609,78.454
7610,84.663
7611,78.775
7612,84.586
7613,78.04
7614,83.27
7615,109.459
7616,127.314
7617,169.892
7618,199.053
7619,199.053
7620,199.053
7621,182.486
7622,199.053
7623,199.053
7624,199.053
7625,199.053
7626,85.72
7627,71.07
7628,77.778
7629,74.42
7630,81.243
7631,77.16
7632,84.723
7633,79.488
7634,88.132
7635,81.591
7636,89.692
7637,82.8
7638,89.233
7639,110.544
7640,128.35
7641,170.239
7642,198.956
7643,199.053
7644,199.053
7645,182.486
7646,199.053
7647,199.053
7648,199.053
7649,199.053
7650,78.402
7651,67.255
7652,70.252
7653,70.878
7654,73.229
7655,74.045
7656,76.145
7657,76.9
7658,78.8
7659,78.097
7660,80.196
7661,79.362
7662,81.602
7663,109.459
7664,127.217
7665,169.843
7666,199.053
7667,199.053
7668,199.053
7669,182.486
7670,199.053
7671,199.053
7672,199.053
7673,199.053
7674,75.199
7675,60.832
7676,64.594
7677,66.388
7678,67.57
7679,68.425
7680,69.563
7681,69.356
7682,72.359
7683,73.862
7684,74.926
7685,73.61
7686,74.021
7687,109.556
7688,127.363
7689,169.892
7690,199.053
7691,199.053
7692,199.053
7693,182.486
7694,199.053
7695,199.053
7696,199.053
7697,199.053
7698,75.199
7699,59.612
7700,59.612
7701,63.65
7702,64.12
7703,66.998
7704,65.68
7705,69.741
7706,68.225
7707,72.507
7708,69.223
7709,72.041
7710,68.673
7711,72.225
7712,73.686
7713,70.486
7714,96.065
7715,96.065
7716,96.065
7717,66.512
7718,66.512
7719,66.512
7720,66.512
7721,16.568
7722,45.264
7723,59.612
7724,59.612
7725,59.612
7726,60.902
7727,62.064
7728,62.157
7729,64.165
7730,63.786
7731,66.517
7732,65.525
7733,68.902
7734,67.583
7735,71.028
7736,31.691
7737,23.293
7738,17.096
7739,16.568
7740,16.568
7741,16.568
7742,16.568
7743,16.568
7744,16.568
7745,16.568
7746,45.264
7747,59.612
7748,59.612
7749,59.612
7750,59.612
7751,59.612
7752,60.973
7753,61.408
7754,63.819
7755,64.229
7756,67.745
7757,66.485
7758,70.069
7759,109.556
7760,127.363
7761,169.892
7762,199.053
7763,199.053
7764,199.053
7765,182.486
7766,199.053
7767,199.053
7768,199.053
7769,199.053
7770,82.373
7771,59.612
7772,59.612
7773,59.612
7774,59.612
7775,59.612
7776,61.081
7777,61.294
7778,62.479
7779,62.429
7780,62.431
7781,62.037
7782,63.589
7783,109.556
7784,127.363
7785,169.892
7786,199.053
7787,199.053
7788,199.053
7789,182.486
7790,199.053
7791,199.053
7792,199.053
7793,199.053
7794,82.373
7795,59.612
7796,59.612
7797,59.612
7798,59.612
7799,61.131
7800,61.356
7801,61.147
7802,60.505
7803,59.848
7804,61.897
7805,61.71
7806,61.55
7807,109.556
7808,127.363
7809,169.892
7810,199.053
7811,199.053
7812,199.053
7813,182.486
7814,199.053
7815,199.053
7816,199.053
7817,199.053
7818,82.373
7819,59.612
7820,59.612
7821,59.612
7822,59.612
7823,59.612
7824,59.612
7825,59.612
7826,59.612
7827,59.612
7828,59.612
7829,59.612
7830,59.612
7831,59.612
7832,30.916
7833,16.568
7834,16.568
7835,16.568
7836,16.568
7837,16.568
7838,16.568
7839,16.568
7840,16.568
7841,16.568
7842,45.264
7843,59.612
7844,63.015
7845,63.861
7846,67.068
7847,66.473
7848,71.262
7849,69.696
7850,74.639
7851,72.122
7852,77.483
7853,74.179
7854,80.671
7855,109.556
7856,134.537
7857,169.892
7858,199.053
7859,199.053
7860,199.053
7861,182.486
7862,199.053
7863,199.053
7864,199.053
7865,199.053
7866,82.373
7867,60.587
7868,63.553
7869,65.579
7870,68.008
7871,68.736
7872,70.078
7873,70.174
7874,71.811
7875,72.138
7876,73.913
7877,73.872
7878,75.776
7879,75.502
7880,80.86
7881,70.486
7882,96.065
7883,96.065
7884,96.065
7885,66.512
7886,66.512
7887,66.512
7888,66.512
7889,19.212
7890,49.21
7891,63.968
7892,64.562
7893,64.821
7894,66.244
7895,66.613
7896,67.553
7897,67.606
7898,69.137
7899,69.988
7900,70.934
7901,70.947
7902,72.271
7903,72.041
7904,44.184
7905,28.597
7906,28.503
7907,27.094
7908,26.558
7909,24.672
7910,24.395
7911,24.851
7912,26.498
7913,26.616
7914,56.392
7915,70.668
7916,70.994
7917,70.217
7918,70.52
7919,69.683
7920,69.854
7921,68.853
7922,69.131
7923,68.313
7924,68.792
7925,67.894
7926,67.978
7927,109.556
7928,134.537
7929,169.892
7930,199.053
7931,199.053
7932,199.053
7933,182.486
7934,199.053
7935,199.053
7936,199.053
7937,199.053
7938,82.373
7939,59.612
7940,61.021
7941,61.31
7942,61.268
7943,61.347
7944,62.399
7945,62.033
7946,62.145
7947,61.459
7948,63.179
7949,62.508
7950,62.846
7951,109.556
7952,134.537
7953,169.892
7954,199.053
7955,199.053
7956,199.053
7957,182.486
7958,199.053
7959,199.053
7960,199.053
7961,199.053
7962,82.373
7963,59.612
7964,59.612
7965,59.612
7966,59.612
7967,59.612
7968,59.612
7969,59.612
7970,59.612
7971,59.612
7972,60.644
7973,61.716
7974,65.728
7975,109.556
7976,134.537
7977,169.892
7978,199.053
7979,199.053
7980,199.053
7981,182.486
7982,199.053
7983,199.053
7984,199.053
7985,199.053
7986,97.341
7987,73.786
7988,78.794
7989,74.736
7990,80.269
7991,76.706
7992,82.69
7993,78.439
7994,84.422
7995,79.208
7996,84.842
7997,79.246
7998,84.767
7999,110.33
8000,135.524
8001,169.599
8002,199.053
8003,199.053
8004,199.053
8005,182.486
8006,199.053
8007,199.053
8008,199.053
8009,199.053
8010,92.223
8011,70.194
8012,76.249
8013,74.076
8014,80.131
8015,75.851
8016,81.373
8017,76.046
8018,80.303
8019,75.002
8020,79.006
8021,74.337
8022,78.62
8023,109.556
8024,134.537
8025,169.892
8026,199.053
8027,199.053
8028,199.053
8029,182.486
8030,199.053
8031,199.053
8032,199.053
8033,199.053
8034,82.373
8035,59.612
8036,63.35
8037,63.847
8038,69.088
8039,67.695
8040,70.264
8041,67.476
8042,69.798
8043,69.264
8044,75.142
8045,71.549
8046,75.285
8047,72.096
8048,80.86
8049,70.486
8050,96.065
8051,96.065
8052,96.065
8053,66.512
8054,66.512
8055,66.512
8056,66.512
8057,16.568
8058,46.395
8059,64.096
8060,65.221
8061,67.016
8062,67.982
8063,70.465
8064,70.375
8065,71.766
8066,70.279
8067,71.169
8068,70.406
8069,71.923
8070,71.192
8071,72.533
8072,42.403
8073,28.232
8074,25.58
8075,24.297
8076,21.801
8077,20.252
8078,16.63
8079,16.568
8080,16.568
8081,16.568
8082,45.264
8083,61.472
8084,62.347
8085,64.698
8086,64.39
8087,66.353
8088,65.01
8089,66.693
8090,65.168
8091,66.73
8092,65.173
8093,67.533
8094,66.409
8095,109.556
8096,141.711
8097,169.892
8098,199.053
8099,199.053
8100,199.053
8101,182.486
8102,199.053
8103,199.053
8104,199.053
8105,199.053
8106,82.373
8107,59.612
8108,59.612
8109,59.612
8110,59.612
8111,59.612
8112,59.612
8113,59.612
8114,59.612
8115,59.612
8116,60.839
8117,61.822
8118,62.292
8119,109.556
8120,141.711
8121,169.892
8122,199.053
8123,199.053
8124,199.053
8125,182.486
8126,199.053
8127,199.053
8128,199.053
8129,199.053
8130,85.437
8131,68.465
8132,69.07
8133,74.717
8134,72.755
8135,78.566
8136,75.13
8137,80.013
8138,76.605
8139,82.68
8140,78.823
8141,85.515
8142,81.562
8143,110.544
8144,142.698
8145,170.239
8146,198.956
8147,199.053
8148,199.053
8149,182.486
8150,199.053
8151,199.053
8152,199.053
8153,199.053
8154,88.345
8155,67.611
8156,73.89
8157,72.371
8158,78.576
8159,75.482
8160,81.772
8161,77.125
8162,83.05
8163,78.586
8164,86.461
8165,81.335
8166,88.459
8167,110.544
8168,142.698
8169,170.879
8170,200.041
8171,199.188
8172,198.956
8173,182.486
8174,199.053
8175,199.053
8176,199.053
8177,199.053
8178,92.931
8179,70.765
8180,75.928
8181,72.713
8182,78.441
8183,75.21
8184,81.82
8185,78.194
8186,85.273
8187,80.005
8188,86.197
8189,79.606
8190,83.86
8191,109.904
8192,141.418
8193,169.746
8194,199.053
8195,199.053
8196,199.053
8197,182.486
8198,199.053
8199,199.053
8200,199.053
8201,199.053
8202,95.523
8203,72.832
8204,77.439
8205,73.753
8206,78.076
8207,73.982
8208,77.846
8209,73.927
8210,78.667
8211,76.598
8212,84.178
8213,79.687
8214,85.689
8215,81.169
8216,89.022
8217,71.473
8218,96.034
8219,96.065
8220,96.065
8221,66.512
8222,66.512
8223,66.512
8224,66.512
8225,23.074
8226,52.877
8227,72.681
8228,71.764
8229,77.27
8230,74.69
8231,80.609
8232,76.25
8233,82.111
8234,79.059
8235,86.554
8236,81.203
8237,87.325
8238,82.378
8239,88.625
8240,60.756
8241,43.462
8242,35.625
8243,36.613
8244,29.735
8245,32.687
8246,29.733
8247,33.563
8248,29.887
8249,34.853
8250,60.74
8251,81.22
8252,78.583
8253,85.849
8254,81.515
8255,88.706
8256,83.66
8257,90.975
8258,85.497
8259,93.453
8260,87.485
8261,95.565
8262,88.276
8263,110.544
8264,142.698
8265,170.879
8266,200.041
8267,200.041
8268,200.041
8269,183.047
8270,198.907
8271,199.053
8272,199.053
8273,199.053
8274,99.152
8275,77.695
8276,83.62
8277,78.562
8278,83.839
8279,79.637
8280,86.691
8281,81.459
8282,86.154
8283,80.528
8284,85.454
8285,79.962
8286,85.041
8287,110.544
8288,142.698
8289,170.666
8290,198.761
8291,199.053
8292,199.053
8293,182.486
8294,199.053
8295,199.053
8296,199.053
8297,199.053
8298,89.823
8299,67.567
8300,71.059
8301,68.886
8302,71.692
8303,68.892
8304,71.129
8305,68.542
8306,71.208
8307,68.111
8308,69.893
8309,67.476
8310,70.326
8311,109.556
8312,141.711
8313,169.892
8314,199.053
8315,199.053
8316,199.053
8317,182.486
8318,199.053
8319,199.053
8320,199.053
8321,199.053
8322,82.373
8323,59.612
8324,61.479
8325,63.128
8326,65.689
8327,67.622
8328,70.167
8329,71.526
8330,73.298
8331,72.925
8332,74.102
8333,74.402
8334,76.644
8335,109.556
8336,141.711
8337,169.892
8338,199.053
8339,199.053
8340,199.053
8341,182.486
8342,199.053
8343,199.053
8344,199.053
8345,199.053
8346,87.733
8347,66.765
8348,71.765
8349,70.111
8350,75.165
8351,72.09
8352,76.48
8353,72.976
8354,77.768
8355,73.759
8356,78.066
8357,73.12
8358,77.328
8359,109.556
8360,141.711
8361,169.892
8362,199.053
8363,199.053
8364,199.053
8365,182.486
8366,199.053
8367,199.053
8368,199.053
8369,199.053
8370,95.31
8371,71.692
8372,75.636
8373,72.046
8374,75.999
8375,72.744
8376,76.622
8377,73.034
8378,77.228
8379,74.091
8380,78.628
8381,74.892
8382,79.873
8383,76.141
8384,87.761
8385,70.194
8386,95.772
8387,95.772
8388,95.772
8389,66.22
8390,66.22
8391,66.22
8392,66.22
8393,34.71
8394,62.599
8395,83.167
8396,78.73
8397,84.894
8398,80.274
8399,86.849
8400,81.824
8401,88.267
8402,82.695
8403,89.59
8404,83.712
8405,90.572
8406,84.864
8407,91.924
8408,71.057
8409,49.29
8410,42.239
8411,47.019
8412,38.867
8413,42.747
8414,35.696
8415,40.08
8416,35.225
8417,40.571
8418,65.174
8419,86.817
8420,82.405
8421,89.521
8422,84.121
8423,91.504
8424,85.396
8425,92.531
8426,86.196
8427,93.479
8428,86.295
8429,92.712
8430,85.68
8431,110.544
8432,149.872
8433,170.879
8434,200.041
8435,200.041
8436,199.614
8437,182.34
8438,199.053
8439,199.053
8440,199.053
8441,199.053
8442,94.377
8443,72.834
8444,79.831
8445,76.336
8446,84.013
8447,79.834
8448,86.471
8449,81.033
8450,88.196
8451,82.305
8452,89.676
8453,83.391
8454,90.71
8455,110.544
8456,149.872
8457,170.879
8458,200.041
8459,200.041
8460,198.81
8461,182.486
8462,199.053
8463,199.053
8464,199.053
8465,199.053
8466,98.207
8467,74.618
8468,79.537
8469,75.109
8470,79.414
8471,75.192
8472,79.608
8473,75.334
8474,80.089
8475,76.423
8476,82.503
8477,78.399
8478,83.931
8479,110.544
8480,149.872
8481,170.879
8482,200.041
8483,198.974
8484,198.907
8485,182.486
8486,199.053
8487,199.053
8488,199.053
8489,199.053
8490,95.112
8491,71.738
8492,75.798
8493,72.816
8494,78.776
8495,76.587
8496,84.403
8497,80.696
8498,87.067
8499,82.343
8500,89.003
8501,83.865
8502,90.842
8503,110.544
8504,149.872
8505,170.879
8506,200.041
8507,200.041
8508,200.041
8509,183.473
8510,200.041
8511,200.041
8512,200.041
8513,200.041
8514,105.609
8515,82.076
8516,89.871
8517,84.406
8518,92.231
8519,85.893
8520,93.823
8521,87.505
8522,95.652
8523,89.028
8524,97.027
8525,90.179
8526,98.317
8527,110.544
8528,149.872
8529,170.879
8530,200.041
8531,200.041
8532,200.041
8533,183.473
8534,198.81
8535,199.053
8536,199.053
8537,199.053
8538,97.121
8539,76.498
8540,84.428
8541,80.267
8542,87.152
8543,82.694
8544,89.704
8545,83.986
8546,90.654
8547,84.474
8548,90.779
8549,84.416
8550,89.71
8551,83.615
8552,96.196
8553,71.473
8554,97.052
8555,96.412
8556,96.016
8557,66.512
8558,66.512
8559,66.512
8560,66.512
8561,21.842
8562,51.399
8563,69.859
8564,69.338
8565,74.103
8566,72.428
8567,77.581
8568,74.552
8569,79.825
8570,75.528
8571,81.095
8572,77.667
8573,84.173
8574,80.091
8575,86.132
8576,66.867
8577,42.104
8578,32.456
8579,31.517
8580,24.712
8581,23.652
8582,19.857
8583,18.315
8584,17.883
8585,18.617
8586,50.326
8587,65.063
8588,67.602
8589,65.906
8590,68.036
8591,66.436
8592,68.595
8593,66.84
8594,69.452
8595,67.273
8596,69.625
8597,67.759
8598,72.063
8599,70.55
8600,59.997
8601,27.991
8602,30.899
8603,27.347
8604,30.315
8605,27.612
8606,30.936
8607,26.976
8608,27.547
8609,24.499
8610,48.79
8611,68.154
8612,70.981
8613,68.157
8614,70.019
8615,67.134
8616,68.289
8617,65.651
8618,66.985
8619,63.977
8620,63.914
8621,63.025
8622,63.475
8623,109.556
8624,148.885
8625,169.892
8626,199.053
8627,199.053
8628,199.053
8629,182.486
8630,199.053
8631,199.053
8632,199.053
8633,199.053
8634,75.199
8635,59.612
8636,60.993
8637,62.855
8638,65.996
8639,65.81
8640,68.969
8641,68.019
8642,72.616
8643,70.838
8644,75.191
8645,72.845
8646,77.985
8647,109.556
8648,148.885
8649,169.892
8650,199.053
8651,199.053
8652,199.053
8653,182.486
8654,199.053
8655,199.053
8656,199.053
8657,199.053
8658,77.456
8659,68.761
8660,68.69
8661,73.367
8662,72.084
8663,76.156
8664,73.154
8665,79.307
8666,76.807
8667,82.492
8668,77.962
8669,84.311
8670,80.918
8671,110.544
8672,149.872
8673,170.879
8674,198.81
8675,199.053
8676,199.053
8677,182.486
8678,199.053
8679,199.053
8680,199.053
8681,199.053
8682,80.19
8683,69.202
8684,70.561
8685,73.21
8686,73.507
8687,76.328
8688,76.2
8689,78.151
8690,76.643
8691,79.147
8692,78.706
8693,81.167
8694,79.081
8695,109.313
8696,148.885
8697,169.892
8698,199.053
8699,199.053
8700,199.053
8701,182.486
8702,199.053
8703,199.053
8704,199.053
8705,199.053
8706,75.199
8707,59.612
8708,59.612
8709,59.612
8710,61.219
8711,62.626
8712,63.579
8713,62.824
8714,65.509
8715,65.489
8716,68.904
8717,67.541
8718,71.594
8719,69.647
8720,95.208
8721,70.486
8722,96.065
8723,96.065
8724,96.065
8725,66.512
8726,66.512
8727,66.512
8728,66.512
8729,23.33
8730,44.249
8731,68.645
8732,66.596
8733,68.972
8734,66.421
8735,68.826
8736,66.065
8737,67.61
8738,64.076
8739,63.186
8740,62.513
8741,61.679
8742,61.437
8743,61.23
8744,46.637
8745,16.568
8746,16.568
8747,16.568
8748,16.568
8749,16.568
8750,16.568
8751,16.568
8752,16.568
8753,18.146
8754,39.773
8755,62.504
8756,62.602
8757,62.109
8758,62.885
8759,63.23
8760,63.978